#This is the raw Datice output, not the official AICC2012 file.
#Depth (m)	Ice age (a B1950)	Ice age std (a)	Gas age (a B1950)	Gas age std (a)	Accu. Rate (m ie)	Thinning	LIDIE (m ie)
0	-55	0.678198	-1	-1	0.0291	0.9948	-1
1.65	-41.54	1.66343	-1	-1	0.0291	0.9945	-1
3.3	-20.47	2.72996	-1	-1	0.0292	0.9942	-1
4.95	4.3	3.78258	-1	-1	0.0293	0.9941	-1
6.6	31.06	4.72145	-1	-1	0.029	0.9941	-1
8.25	57.05	5.64763	-1	-1	0.0288	0.994	-1
9.9	85.04	6.54165	-1	-1	0.0273	0.9939	-1
11.55	114.51	7.39178	-1	-1	0.0264	0.9938	-1
13.2	145	8.19259	-1	-1	0.0267	0.9939	-1
14.85	176.33	8.92132	-1	-1	0.0268	0.9938	-1
16.5	207.54	9.60761	-1	-1	0.027	0.9937	-1
18.15	239.98	10.2582	-1	-1	0.0265	0.9935	-1
19.8	274.2	10.8681	-1	-1	0.0261	0.9932	-1
21.45	310.09	11.424	-1	-1	0.0259	0.9926	-1
23.1	346.64	11.9479	-1	-1	0.0253	0.9922	-1
24.75	384.89	12.4303	-1	-1	0.0254	0.9919	-1
26.4	423.74	12.8618	-1	-1	0.0263	0.9916	-1
28.05	461.7	13.2644	-1	-1	0.0265	0.9913	-1
29.7	500.2	13.6509	-1	-1	0.0262	0.991	-1
31.35	539.86	14.0122	-1	-1	0.0265	0.9907	-1
33	579.52	14.3439	-1	-1	0.0274	0.9906	-1
34.65	618.15	14.6517	-1	-1	0.0284	0.9906	-1
36.3	655.8	14.973	-1	-1	0.0269	0.9905	-1
37.95	696.74	15.3151	-1	-1	0.0255	0.9904	-1
39.6	740.26	15.6624	-1	-1	0.0256	0.9905	-1
41.25	784.06	15.9856	-1	-1	0.0278	0.9906	-1
42.9	824.8	16.2751	-1	-1	0.0301	0.9905	-1
44.55	863.05	16.5521	-1	-1	0.0284	0.9903	-1
46.2	903.94	16.7988	-1	-1	0.0267	0.9901	-1
47.85	947.77	16.9909	-1	-1	0.0264	0.9899	-1
49.5	992.56	17.1196	-1	-1	0.0273	0.9897	-1
51.15	1037.03	17.1881	-1	-1	0.028	0.9894	-1
52.8	1080.33	17.199	-1	-1	0.0274	0.9892	-1
54.45	1124.67	17.1607	-1	-1	0.028	0.9888	-1
56.1	1169.43	17.0905	-1	-1	0.0291	0.9885	32.74
57.75	1212.13	16.9947	81.12	94.2602	0.0292	0.9881	33.93
59.4	1255.11	16.8772	85.86	97.9961	0.0285	0.9877	35.14
61.05	1300.31	16.7694	91.38	101.517	0.0284	0.9873	36.37
62.7	1345.56	16.688	95.77	104.796	0.0292	0.9868	37.63
64.35	1390.3	16.6365	100.11	108.345	0.0298	0.9866	38.85
66	1433.9	16.6025	105.07	112.116	0.0272	0.9861	40.1
67.65	1482.74	16.6073	110.46	116.51	0.0276	0.9858	41.41
69.3	1530.9	16.6663	113.69	124.753	0.0279	0.9855	42.7
70.95	1578.87	16.7953	117.98	128.689	0.0278	0.9853	44.02
72.6	1627.5	17.0164	121.44	131.857	0.0272	0.985	45.36
74.25	1677.8	17.3463	124.99	135.16	0.0276	0.9848	46.71
75.9	1727.92	17.8122	128.15	139.069	0.0273	0.9845	48.08
77.55	1778.58	18.4196	130.96	143.41	0.0275	0.9842	49.49
79.2	1829.26	19.1543	132.92	146.83	0.0271	0.9838	50.88
80.85	1881.37	19.9335	136.33	150.367	0.0284	0.9833	52.29
82.5	1930.73	20.7875	138.76	154.033	0.0285	0.9828	53.66
84.15	1980.74	21.7206	143.23	162.769	0.0279	0.9824	55.06
85.8	2031.85	22.7298	146.47	167.323	0.027	0.9819	56.48
87.45	2084.97	23.7239	149.45	171.633	0.0282	0.9815	58
89.1	2136.64	24.7266	150.21	176.462	0.028	0.981	59.46
90.75	2188.7	25.7538	152.65	180.504	0.027	0.9806	60.93
92.4	2243.55	26.6834	155.41	184.449	0.029	0.9801	62.41
94.05	2294.52	27.602	158.12	188.513	0.0286	0.9796	63.9
95.7	2346.95	28.6033	161	192.915	0.025	0.9791	65.4
97.35	2407.06	29.5163	163.44	195.105	0.0262	0.9787	66.46
99	2464.03	30.3726	178.57	211.179	0.0266	0.9782	65.47
100.65	2520.86	31.1184	255.47	230.411	0.0283	0.9777	64.16
102.3	2574.79	31.7799	348.57	235.677	0.0286	0.9772	65.62
103.95	2628.03	32.35	353.37	231.87	0.0293	0.9767	65.07
105.6	2680.49	32.8406	426.35	241.217	0.0284	0.9764	64.33
107.25	2734.89	33.2263	503.53	243.927	0.0291	0.9758	64.92
108.9	2788.15	33.508	538.32	249.592	0.0305	0.9754	66.48
110.55	2838.65	33.6985	539.94	243.537	0.0314	0.9748	66.38
112.2	2888.64	33.8019	597.52	253.8	0.0289	0.9743	65.14
113.85	2942.97	33.822	690.31	268.169	0.0288	0.9736	64.7
115.5	2997.2	33.7544	763.04	230.722	0.0276	0.9731	63.98
117.15	3054.25	33.6246	840.7	248.366	0.0286	0.9724	64.64
118.8	3109.2	33.4485	870.91	251.529	0.0296	0.972	65.64
120.45	3162.77	33.1944	891.05	267.945	0.0284	0.9714	64.11
122.1	3219.34	32.8464	1001.09	261.806	0.0267	0.9708	63.85
123.75	3279.95	32.4793	1066.1	270.506	0.0275	0.9702	63.52
125.4	3338.77	32.1205	1133.02	273.221	0.0281	0.9696	64.14
127.05	3396.81	31.7638	1168.94	261.401	0.0273	0.9691	63.72
128.7	3456.58	31.451	1236.33	278.044	0.0282	0.9684	64.42
130.35	3514.74	31.1983	1268.58	283.055	0.0292	0.968	65.35
132	3570.59	31.0027	1293.39	278.305	0.029	0.9674	64.86
133.65	3627.34	30.8855	1365.6	272.817	0.03	0.967	65.52
135.3	3682.58	30.8312	1399.01	305.684	0.0304	0.9667	66.04
136.95	3737.02	30.8302	1435.78	298.99	0.0307	0.9662	65.9
138.6	3790.94	30.8898	1499.6	295.295	0.0289	0.9657	64.6
140.25	3848.2	31.0028	1602.09	299.25	0.0285	0.9653	63.99
141.9	3906.34	31.1561	1682.3	301.349	0.0287	0.965	64.92
143.55	3964.41	31.3819	1708.86	304.772	0.0285	0.9643	64.76
145.2	4023.05	31.6337	1775.41	311.758	0.0295	0.9639	64.65
146.85	4079.72	31.913	1838.93	314.074	0.0295	0.9635	65.26
148.5	4136.81	32.2343	1878.43	301.063	0.0289	0.9627	64.78
150.15	4194.7	32.5789	1953.14	305.727	0.0293	0.9623	64.26
151.8	4252.23	32.9313	2029.43	313.387	0.03	0.9618	66.07
153.45	4308.32	33.321	2026.32	312.077	0.029	0.9613	64.82
155.1	4366.42	33.7413	2129.89	316.281	0.0287	0.9608	65.14
156.75	4425.14	34.1743	2178.07	304.42	0.0289	0.9606	64.37
158.4	4483.57	34.6053	2264.68	311.295	0.0304	0.9604	66.06
160.05	4539.45	35.0926	2265.56	336.966	0.028	0.9597	63.72
161.7	4599.7	35.5937	2412.28	345.242	0.0288	0.9594	65.25
163.35	4658.6	36.1195	2419.43	341.047	0.0288	0.9588	64.48
165	4717.34	36.6735	2510.9	326.323	0.0287	0.9583	64.84
166.65	4776.56	37.2476	2559.21	313.606	0.0278	0.9581	64.51
168.3	4837.69	37.8329	2628.86	315.833	0.0281	0.9575	64.75
169.95	4898.27	38.3968	2678.98	329.927	0.0298	0.9572	65.13
171.6	4955.4	38.9651	2725.33	302.599	0.0291	0.9567	64.41
173.25	5013.89	39.5303	2807.22	307.5	0.0285	0.9563	65.42
174.9	5073.67	40.0807	2829.86	321.618	0.0281	0.9561	63.86
176.55	5134.35	40.5859	2936.85	334.559	0.0297	0.9556	66.51
178.2	5192.23	41.0556	2905.93	333.007	0.0295	0.9553	66.21
179.85	5250.09	41.4943	2974.82	334.335	0.0283	0.9548	65.55
181.5	5310.46	41.8651	3059.16	322.561	0.0294	0.9544	64.66
183.15	5368.96	42.1607	3147.28	364.764	0.0293	0.9538	64.07
184.8	5427.26	42.4025	3227.76	369.802	0.026	0.9534	64.62
186.45	5493.35	42.5707	3271.71	364.592	0.0266	0.9532	65.84
188.1	5557.76	42.6635	3290.14	357.451	0.0288	0.9528	63.53
189.75	5617.6	42.6849	3433.73	345.395	0.0289	0.9525	63.13
191.4	5676.74	42.6303	3508.7	335.484	0.0284	0.9523	64.28
193.05	5737.28	42.5105	3528.9	337.796	0.0294	0.9518	63.71
194.7	5795.9	42.3363	3607.11	332.314	0.0303	0.9517	64.27
196.35	5852.38	42.1046	3645.63	328.98	0.0303	0.9513	64.76
198	5909.33	41.7961	3687.07	335.313	0.0285	0.951	65.88
199.65	5969.74	41.4207	3707.18	344.949	0.0272	0.9507	64.52
201.3	6033.05	41.0646	3808.08	349.116	0.0293	0.9502	65.97
202.95	6091.88	40.6649	3818.92	356.081	0.0284	0.95	65.98
204.6	6152.24	40.24	3877.45	357.16	0.029	0.9498	64.98
206.25	6211.86	39.8246	3971.81	358.754	0.0287	0.9495	65.29
207.9	6271.95	39.4173	4021.55	346.993	0.0279	0.9494	64.36
209.55	6333.9	39.0755	4110.28	351.102	0.028	0.949	64.19
211.2	6395.52	38.7965	4175.61	347.719	0.0272	0.9486	64.57
212.85	6458.97	38.6106	4222.23	341.078	0.0298	0.9481	65.31
214.5	6516.94	38.4542	4256.51	354.343	0.0272	0.9479	65.2
216.15	6580.44	38.3708	4317.78	351.996	0.0279	0.9474	64.54
217.8	6642.38	38.3391	4400.42	349.868	0.027	0.9468	64.71
219.45	6706.43	38.3297	4455.4	340.605	0.0288	0.9469	65.24
221.1	6766.59	38.3189	4495.58	363.976	0.0278	0.9469	64.05
222.75	6828.86	38.3208	4594.62	358.861	0.0282	0.9467	64.4
224.4	6890.37	38.3381	4642.58	365.594	0.0308	0.9462	65.95
226.05	6946.67	38.3366	4650.04	362.22	0.0282	0.946	64.78
227.7	7008.11	38.3275	4749.95	370.616	0.0282	0.9454	64.39
229.35	7069.53	38.3041	4826.02	369.335	0.0275	0.9451	64.8
231	7132.9	38.2766	4891.28	350.5	0.0273	0.9449	64.64
232.65	7196.54	38.2438	4938.3	355.299	0.0255	0.9442	64.44
234.3	7264.7	38.2197	5005.04	363.643	0.0268	0.9437	63.88
235.95	7329.52	38.2022	5085.98	372.246	0.0298	0.9432	65.58
237.6	7387.94	38.1532	5088.55	351.735	0.0264	0.9425	65.19
239.25	7453.85	38.1034	5163.14	362.298	0.0271	0.9419	64.74
240.9	7518.59	38.0387	5252.8	353.421	0.0284	0.9421	64.3
242.55	7579.87	37.9776	5313	358.063	0.0302	0.942	64.92
244.2	7637.47	37.9031	5351.11	364.698	0.0289	0.942	66.05
245.85	7697.71	37.8277	5371.54	393.407	0.029	0.9418	64.03
247.5	7758.06	37.7688	5522.42	395.114	0.029	0.9414	64.48
249.15	7818.14	37.7256	5556.91	374.093	0.0285	0.9411	65.5
250.8	7879.23	37.7049	5582.54	367.487	0.0285	0.9404	63.85
252.45	7940.7	37.6975	5713.71	350.474	0.0291	0.9396	63.61
254.1	8001.02	37.6973	5782.69	334.18	0.0272	0.9394	62.11
255.75	8065.51	37.7037	5888.81	349.439	0.0262	0.9388	65.56
257.4	8132.69	37.7238	5835.44	362.731	0.0275	0.9381	64.34
259.05	8196.56	37.7584	5934.93	377.08	0.0256	0.9373	64.25
260.7	8265.36	37.8042	6001.39	386.994	0.0272	0.9372	65.56
262.35	8330.12	37.852	6018.02	362.696	0.0273	0.937	65.9
264	8394.61	37.8846	6067.02	371.789	0.0265	0.9369	65.46
265.65	8461.03	37.9177	6142.22	362.588	0.0275	0.9366	64.04
267.3	8525.12	37.948	6250.96	371.022	0.0284	0.9363	63.56
268.95	8587.21	37.949	6329.61	377.36	0.0285	0.9363	64.56
270.6	8648.95	37.9344	6356.28	392.211	0.0293	0.9362	65.01
272.25	8709.11	37.9142	6402.65	352.698	0.0284	0.9357	64.31
273.9	8771.17	37.8585	6489.72	386.214	0.0283	0.9355	64.37
275.55	8833.51	37.7141	6549.15	378.261	0.0275	0.9356	64.05
277.2	8897.68	37.5392	6622.58	363.521	0.0296	0.9355	63.24
278.85	8957.3	37.3224	6715.05	377.49	0.0295	0.9353	63.42
280.5	9017.1	37.0503	6769.53	389.171	0.0296	0.9353	65
282.15	9076.72	36.7224	6776.27	380.115	0.0295	0.9357	63.62
283.8	9136.6	36.3742	6885.61	349.679	0.0288	0.9355	63.72
285.45	9197.82	36.0079	6939.41	375.472	0.0281	0.9353	62.62
287.1	9260.62	35.6786	7039.11	388.899	0.0311	0.9356	64.43
288.75	9317.27	35.3462	7036.72	395.88	0.0294	0.9352	63.8
290.4	9377.26	35.0525	7122.48	418.724	0.0303	0.9349	63.05
292.05	9435.45	34.7758	7215.35	406.113	0.031	0.935	65.47
293.7	9492.35	34.5106	7190.12	406.108	0.0324	0.9349	64.13
295.35	9546.9	34.2004	7307.53	364.371	0.0292	0.9349	63.73
297	9607.35	33.9007	7381.47	402.749	0.0308	0.9351	63.43
298.65	9664.62	33.5913	7457.16	382.917	0.031	0.9351	63.48
300.3	9721.51	33.2873	7519.93	365.05	0.0319	0.9355	61.33
301.95	9776.8	32.9963	7651	372.488	0.0324	0.9353	62.63
303.6	9831.27	32.729	7667.29	375.171	0.0333	0.9354	63.01
305.25	9884.18	32.4266	7714.54	384.559	0.0292	0.9357	64.27
306.9	9944.53	32.1709	7731.21	377.437	0.0309	0.9356	62.2
308.55	10001.6	31.9374	7862.57	385.433	0.0306	0.9357	63.15
310.2	10059.3	31.7374	7890.91	379.189	0.0309	0.9355	63.14
311.85	10116.4	31.584	7952.86	392.236	0.0319	0.9354	65.11
313.5	10171.7	31.4716	7946.1	416.565	0.0318	0.9352	64.52
315.15	10227.1	31.4068	8028.74	429.86	0.0324	0.9349	63.9
316.8	10281.7	31.3877	8119.02	409.208	0.0314	0.9351	63.82
318.45	10338	31.4264	8185.72	450.599	0.0303	0.9351	65.21
320.1	10396.1	31.5341	8199.72	408.59	0.0313	0.9354	62.84
321.75	10452.5	31.7224	8354.26	419.312	0.0298	0.9353	64.71
323.4	10511.6	31.9834	8350.78	408.475	0.0295	0.9351	63.47
325.05	10571.5	32.2708	8462.97	392.133	0.0332	0.9356	62.64
326.7	10624.6	32.5698	8554.94	386.097	0.0345	0.9353	62.09
328.35	10675.7	32.9193	8636.66	379.77	0.03	0.9354	62.59
330	10734.5	33.291	8680.16	386.446	0.0303	0.9353	61.47
331.65	10792.7	33.6767	8780.87	396.139	0.0311	0.9346	63.27
333.3	10849.5	34.1128	8781.29	405.517	0.0295	0.9344	63.02
334.95	10909.5	34.5942	8853.38	372.541	0.0305	0.934	62.24
336.6	10967.4	35.1493	8943.55	377.252	0.0307	0.9336	62.9
338.25	11025	35.8107	8981.89	377.752	0.0303	0.9331	63.34
339.9	11083.3	36.6281	9027.66	383.114	0.0291	0.9325	64.16
341.55	11144	37.5331	9061.19	387.377	0.0315	0.9324	64.16
343.2	11200.3	38.6342	9121.28	394.913	0.03	0.9316	63.98
344.85	11259.3	39.9646	9190.24	361.269	0.0285	0.9305	63.41
346.5	11321.5	41.3318	9274.2	380.803	0.0316	0.9299	63.17
348.15	11377.7	42.9317	9341.18	389.557	0.0303	0.9293	64.38
349.8	11436.4	44.6925	9361.74	378.924	0.0307	0.9288	64.42
351.45	11494.2	46.6016	9420	377.098	0.0311	0.9286	65.46
353.1	11551.3	48.8372	9444.39	359.199	0.0289	0.9281	64.87
354.75	11612.9	51.003	9520.14	370.853	0.0319	0.9277	66.87
356.4	11668.7	53.2709	9514.22	378.921	0.0318	0.9273	68.27
358.05	11724.6	55.9067	9526.77	427.554	0.0286	0.9269	69.26
359.7	11786.8	58.5555	9552.67	438.526	0.0296	0.9268	70.74
361.35	11846.9	61.2	9563.21	448.49	0.0304	0.9261	72.26
363	11905.5	63.9666	9573.39	425.695	0.0294	0.9256	72.47
364.65	11966.2	66.8867	9627.15	416.658	0.0281	0.9251	71.36
366.3	12029.7	70.0295	9720.98	391.525	0.0261	0.9245	70.15
367.95	12097.9	73.2583	9814.57	427.219	0.0256	0.924	69.06
369.6	12167.7	76.468	9903.74	398.624	0.0257	0.9236	68.13
371.25	12237.2	79.8732	9993.7	395.928	0.0246	0.9228	67.71
372.9	12309.8	83.885	10066.7	384.865	0.0229	0.9224	67.79
374.55	12387.9	88.1445	10122.2	389.191	0.0237	0.9221	68.28
376.2	12463.4	92.7295	10162.8	394.431	0.024	0.9219	68.59
377.85	12538	98.1872	10209.3	397.785	0.0215	0.9216	67.89
379.5	12621.1	103.833	10286.1	426.198	0.0221	0.9213	68.29
381.15	12702.1	109.838	10330.5	467.006	0.0216	0.9211	68.38
382.8	12785.1	116.672	10386.1	490.903	0.0194	0.921	67.45
384.45	12877.4	123.365	10473.2	511.924	0.0203	0.921	66.88
386.1	12965.8	130.145	10551.7	443.662	0.0201	0.921	66.05
387.75	13054.9	136.871	10631.2	467.683	0.0202	0.9208	61.85
389.4	13143.7	143.439	10820.1	479.948	0.0204	0.9207	62.9
391.05	13231.6	149.859	10844	505.48	0.0203	0.9207	66.06
392.7	13320	156.141	10800.6	518.469	0.0201	0.9208	67.79
394.35	13409.4	161.986	10802.5	509.325	0.0207	0.9207	65.65
396	13495.9	167.456	10930.6	496.992	0.0211	0.9207	65
397.65	13580.9	172.656	11009.4	511.869	0.0211	0.9207	64.3
399.3	13665.8	178.027	11090.6	467.537	0.0193	0.9209	64.12
400.95	13758.9	182.736	11156.1	470.571	0.0209	0.9211	65.65
402.6	13844.7	187.229	11163.9	468.629	0.0207	0.9212	66.7
404.25	13931.3	191.758	11186.7	484.385	0.0193	0.9212	67.16
405.9	14024.1	195.821	11229.9	491.68	0.0201	0.9215	66.3
407.55	14113.3	199.352	11319.7	446.544	0.0213	0.9218	65.34
409.2	14197.2	202.68	11406.7	416.041	0.0206	0.922	63.96
410.85	14284.2	205.397	11509	440.382	0.023	0.9222	64.4
412.5	14362.2	208.002	11551.9	416.277	0.0215	0.9224	66.9
414.15	14445.4	210.279	11528.5	424.089	0.0221	0.9226	68.56
415.8	14526.4	212.306	11532.1	434.891	0.0224	0.923	70.02
417.45	14606.1	213.942	11541.7	447.445	0.0256	0.9228	71.95
419.1	14675.9	215.529	11537.6	432.542	0.0239	0.9221	71.24
420.75	14750.7	217.121	11623.5	471.952	0.0215	0.9214	69.83
422.4	14834	218.58	11724.9	453.497	0.0213	0.9206	68.91
424.05	14918.1	219.936	11820.1	463.631	0.0206	0.9197	67.88
425.7	15005.4	221.192	11915.4	490.675	0.0192	0.9187	66.75
427.35	15098.7	222.23	12019.1	551.723	0.0202	0.9177	65.92
429	15187.7	223.065	12121.6	561.626	0.0209	0.9168	64.94
430.65	15273.7	223.714	12231.2	642.038	0.0199	0.9157	63.79
432.3	15364.2	224.146	12356.4	651.154	0.0208	0.915	64.41
433.95	15450.8	224.363	12409.5	680.444	0.0199	0.9142	65.03
435.6	15541.4	224.376	12461.3	702.674	0.0198	0.9133	65.76
437.25	15632.6	224.176	12508.4	809.288	0.0183	0.9125	65.95
438.9	15731.5	223.804	12581.7	814.172	0.018	0.9117	66.03
440.55	15832.3	223.319	12663	858.691	0.0187	0.9108	66.28
442.2	15929.4	222.678	12736.2	978.25	0.0182	0.9101	66.29
443.85	16029.1	221.95	12825	958.594	0.0182	0.9093	66.29
445.5	16128.6	221.227	12918.7	981.191	0.0184	0.9084	66
447.15	16227.1	220.575	13025.1	963.67	0.0177	0.9075	64.19
448.8	16329.8	220.18	13204.6	974.125	0.0175	0.9067	62.37
450.45	16433.8	220.247	13384.8	926.515	0.0169	0.9057	60.87
452.1	16541.9	221.019	13545.8	960.407	0.0171	0.905	61.39
453.75	16648.4	222.699	13608.7	1088.44	0.0168	0.9042	61.99
455.4	16756.7	225.331	13668.8	1133.31	0.0167	0.9035	62.72
457.05	16865.8	229.036	13727.2	1077.37	0.0163	0.9026	62.71
458.7	16978.3	234.135	13818.4	1185.21	0.0154	0.9017	61.9
460.35	17096.7	240.696	13947.1	1166	0.0154	0.901	61.3
462	17215.4	249.154	14070.9	1120.27	0.0147	0.9002	60.64
463.65	17340.3	259.563	14190.1	1207.48	0.0144	0.8994	61.24
465.3	17468.1	271.156	14250.7	1277.86	0.015	0.8987	63.14
466.95	17590.1	284.705	14250.6	1194.52	0.0144	0.8979	64.2
468.6	17717.3	299.771	14289.1	1293.5	0.0141	0.8971	63.78
470.25	17847.6	316.276	14388.9	1268.12	0.0137	0.8962	63.15
471.9	17981.9	334.234	14502.2	1104.47	0.0132	0.8952	62.46
473.55	18121.6	351.3	14614	1195.38	0.0141	0.8942	62.7
475.2	18252.4	368.322	14677.7	1220.7	0.0138	0.8932	63.55
476.85	18385.8	385.018	14720.7	1378.93	0.0135	0.8922	64.14
478.5	18522.7	400.287	14777.3	1402.25	0.0141	0.8911	65.04
480.15	18653.6	415.127	14823.4	1417.82	0.0139	0.8902	64.96
481.8	18787.1	429.66	14914.1	1538.35	0.0135	0.8893	63.46
483.45	18924.3	442.303	15080	1394.29	0.0146	0.8883	62.34
485.1	19051.3	454.202	15225.5	1374.26	0.014	0.8872	61.01
486.75	19184.3	464.522	15381.1	1414.65	0.0143	0.8863	60.11
488.4	19314.8	473.506	15515.3	1519.21	0.0141	0.8856	59.13
490.05	19446.6	481.249	15659	1544.09	0.014	0.8849	58.91
491.7	19579.6	487.743	15772.7	1569.77	0.0146	0.8842	59.74
493.35	19707.4	493.189	15831.2	1536.65	0.0152	0.8834	60.57
495	19830.5	497.864	15887.8	1593.28	0.0143	0.8826	61.05
496.65	19961.3	501.149	15963.6	1618.02	0.0141	0.8819	61.81
498.3	20094.2	502.85	16025.4	1640.46	0.0144	0.8812	62.6
499.95	20224.2	503.139	16085.8	1649.43	0.0153	0.8804	63.61
501.6	20346.6	501.851	16134.5	1700.49	0.0144	0.8796	62.92
503.25	20476.9	499.388	16274.1	1738.5	0.0153	0.8789	61.03
504.9	20599.6	495.443	16486.5	1679.64	0.015	0.8783	58.77
506.55	20725.1	489.866	16726	1704.51	0.0145	0.8775	57.5
508.2	20854.7	483.439	16912.9	1807.07	0.0155	0.8768	57.92
509.85	20975.9	475.32	17004.8	1807.37	0.0148	0.8759	57.95
511.5	21102.9	466.197	17125.2	1914.86	0.0153	0.8753	58.38
513.15	21226.3	455.359	17219.1	1937.84	0.0147	0.8744	59.25
514.8	21354.6	443.697	17290.6	2017.88	0.0151	0.8738	60.42
516.45	21479.5	430.181	17340.7	2037.02	0.0145	0.8731	61.13
518.1	21610.2	416.613	17423.9	1993.57	0.0155	0.8724	60.13
519.75	21732.6	401.202	17616.5	2019.48	0.0144	0.8717	57.66
521.4	21863.6	384.708	17920	1902.31	0.0139	0.871	55.46
523.05	21999.7	369.274	18216.3	1973.73	0.0149	0.8701	54.88
524.7	22127	352.835	18394	1993.03	0.014	0.8695	55.31
526.35	22262.5	336.331	18502.5	1932.77	0.0135	0.8688	55.81
528	22403.3	321.641	18603.1	1984.5	0.0138	0.868	56.13
529.65	22540.7	309.093	18716.5	2010.87	0.0143	0.8673	55.31
531.3	22673.5	298.412	18914.2	1918.73	0.0143	0.8666	54.29
532.95	22806.9	289.478	19116	1861.25	0.0137	0.866	53.68
534.6	22946	282.558	19292.5	1880.11	0.0136	0.8652	54.01
536.25	23086.1	277.663	19404.1	1898.48	0.0137	0.8645	54.35
537.9	23225.8	275.059	19516.3	1841.94	0.0145	0.8639	54.98
539.55	23357.1	274.536	19606.8	1786.76	0.0139	0.8634	55.28
541.2	23494.5	276.578	19716.9	1792.96	0.0132	0.8626	55.56
542.85	23639.7	280.637	19825	1921.14	0.0137	0.8618	56.19
544.5	23779	286.311	19915.6	1981.32	0.0137	0.8611	56.92
546.15	23919.1	294.127	20000.4	1973.2	0.0126	0.8606	57.5
547.8	24071.1	303.607	20095.4	2013.47	0.0123	0.8599	58.34
549.45	24226.9	313.949	20171.7	1935.41	0.0121	0.8591	59.07
551.1	24385.9	324.097	20253.9	2044.52	0.0126	0.8586	58.48
552.75	24537.9	334.534	20420.6	1937.82	0.0119	0.8579	57.2
554.4	24700	343.439	20632.4	1968.26	0.0127	0.8571	56.34
556.05	24851.2	351.422	20820.7	1885.17	0.0114	0.8564	54.92
557.7	25020.7	357.029	21038.9	1850.61	0.0116	0.8558	53.25
559.35	25186.8	359.733	21275.2	1792.08	0.0116	0.8551	52.87
561	25353.9	359.329	21429.3	1857.41	0.0117	0.8544	54.9
562.65	25519	355.59	21425.9	1919.55	0.0109	0.8536	54.55
564.3	25696.3	349.864	21581.6	1832.62	0.0113	0.853	55.61
565.95	25867.3	342.498	21641	1953	0.0116	0.8523	55.75
567.6	26033.7	334.007	21758.9	2006.72	0.0115	0.8517	57.44
569.25	26202.3	324.447	21778.4	2066.16	0.0118	0.8511	57.12
570.9	26366.5	313.717	21936.9	2141.19	0.0117	0.8505	59.22
572.55	26532.1	301.398	21927.9	1994.19	0.0115	0.8498	58.92
574.2	26701.6	288.02	22083.2	2040.02	0.0117	0.8492	60.35
575.85	26868	273.907	22119.4	2206.95	0.0117	0.8487	61.64
577.5	27034.7	259.933	22167	2249.97	0.0115	0.8481	60.98
579.15	27203.4	247.914	22354.8	2199.55	0.0117	0.8472	61.85
580.8	27370.6	237.123	22436.4	2197.67	0.0116	0.847	62.54
582.45	27538.9	227.982	22526.4	2106.41	0.0121	0.846	63.11
584.1	27700	221.259	22626	2153.42	0.0134	0.8459	62.35
585.75	27845.8	216.329	22811.2	2151.06	0.0126	0.8453	62.86
587.4	28000.9	213.924	22917.3	2181.36	0.0125	0.8452	63.49
589.05	28157.1	213.318	23012.9	2258.92	0.0135	0.845	65.7
590.7	28302.2	214.134	22996	2226.95	0.013	0.8444	64.81
592.35	28452	216.6	23202.2	2173.34	0.0122	0.843	64.28
594	28612.7	220.64	23379.3	2221.72	0.0123	0.8429	65.51
595.65	28771.3	225.119	23430.3	2326.26	0.0136	0.8424	65.19
597.3	28915.1	230.159	23598.6	2327.65	0.0139	0.8421	62.66
598.95	29055.9	236.61	23921.8	2348.83	0.0133	0.8415	62.34
600.6	29203.7	243.199	24103.5	2380.98	0.0132	0.8413	62.68
602.25	29352.5	248.893	24233.5	2223.02	0.0138	0.841	61.9
603.9	29494.9	253.686	24454.4	2337.99	0.0142	0.8404	61.79
605.55	29633.2	258	24624.1	2344	0.0147	0.8395	59.6
607.2	29767.1	262.406	24966.4	2300.95	0.0143	0.8385	59.69
608.85	29904.6	266.257	25131.1	2333.83	0.014	0.838	59.87
610.5	30045.4	268.9	25285.8	2327.23	0.0145	0.8377	59.67
612.15	30181.4	270.241	25469.9	2407.29	0.0134	0.8368	59.04
613.8	30328.8	270.306	25706.3	2366.69	0.0127	0.836	58.94
615.45	30484.4	270.059	25890.1	2410.42	0.0129	0.8358	59.41
617.1	30638	269.476	26018.3	2375.42	0.0132	0.8356	58.99
618.75	30788.1	267.802	26223.1	2390.18	0.0131	0.8349	59.3
620.4	30938.8	264.807	26364.9	2451.81	0.0129	0.8341	59.15
622.05	31092.2	260.689	26549.3	2381.7	0.0131	0.8334	58.64
623.7	31243.4	256.167	26764.6	2396.88	0.0137	0.8325	59.12
625.35	31388.2	251.476	26896.9	2417.47	0.013	0.8314	59.1
627	31540.4	246.996	27072.1	2386.43	0.0124	0.8316	58.95
628.65	31701	242.606	27251.8	2396.06	0.0126	0.8313	59.12
630.3	31859	238.587	27407.1	2278.01	0.0128	0.8305	59.24
631.95	32014.5	235.167	27567.9	2309.1	0.0123	0.8302	60.73
633.6	32175.7	232.428	27610.6	2350.13	0.0135	0.8298	62.57
635.25	32323.1	230.119	27624.8	2158.18	0.0139	0.8296	60.16
636.9	32466.3	228.532	27962.1	2234.9	0.0138	0.8293	62.64
638.55	32610.9	227.439	27926.5	2033.28	0.0132	0.8277	61.21
640.2	32762	226.296	28200	2095.85	0.0134	0.8267	61.11
641.85	32910.7	224.741	28359	2266.41	0.013	0.8263	61.54
643.5	33064	223.113	28481	2313.02	0.0118	0.8252	62.86
645.15	33233.6	222.599	28542.5	2402.47	0.0121	0.8252	65.36
646.8	33398.4	222.901	28501.7	2312.69	0.0129	0.8233	64.36
648.45	33553.8	223.392	28753.8	2004.9	0.0139	0.8225	63.09
650.1	33698.3	223.809	28992.7	2134.71	0.014	0.8225	64.1
651.75	33841.2	224.266	29063.3	2167.91	0.0133	0.8225	64.82
653.4	33991.8	225.002	29157.2	2227.09	0.0134	0.8214	65.78
655.05	34141.2	225.3	29241.3	2148.41	0.0128	0.819	65.95
656.7	34299.2	224.626	29389.9	1978.59	0.0118	0.8196	63.57
658.35	34469.9	223.578	29690.2	2073.79	0.0118	0.8189	64.46
660	34640.2	223.356	29768.1	2070.14	0.0124	0.8181	63.06
661.65	34803.4	224.337	30007.8	2068.13	0.0122	0.8172	60.97
663.3	34968.8	225.47	30300.3	2141.5	0.0133	0.8162	61.21
664.95	35120.8	226.335	30441.2	2072.55	0.0134	0.8156	61.45
666.6	35271.2	227.114	30580.7	1971.05	0.0138	0.8145	61.28
668.25	35418.1	227.757	30750.8	1932.37	0.0137	0.8135	61.08
669.9	35566.1	228.614	30921.2	1956.71	0.0141	0.8135	61.43
671.55	35710.5	229.748	31048.5	1949.95	0.0144	0.8132	62.35
673.2	35851.1	230.934	31133.4	1912.78	0.0139	0.8124	60.59
674.85	35997.6	232.344	31413.8	2018.99	0.0138	0.8117	60.14
676.5	36144.8	234.037	31607	2080.62	0.0141	0.811	61.2
678.15	36288.8	236.008	31687.7	2072.38	0.013	0.8097	61.26
679.8	36445.2	238.287	31849.7	2067.04	0.0139	0.8081	61.58
681.45	36592.5	240.663	31989.9	2158.78	0.0132	0.8075	63.77
683.1	36747.4	242.893	31982.2	2237.65	0.0137	0.807	65.79
684.75	36896.7	244.746	31986.7	2054.99	0.0141	0.8065	63.76
686.4	37042.1	245.999	32299.1	1983.75	0.0142	0.8062	63.7
688.05	37185.9	246.671	32448.5	1978.75	0.0143	0.8059	63.63
689.7	37329.3	246.719	32599.4	1973.67	0.0143	0.8051	61.12
691.35	37472.7	246.437	32937.7	2079.3	0.016	0.8037	60.01
693	37601.1	245.502	33194.7	1993.54	0.0156	0.8018	61.16
694.65	37733.2	243.875	33279.8	1978.64	0.0161	0.8006	62.76
696.3	37861.5	241.61	33324	1831.02	0.0162	0.8005	63.26
697.95	37989.1	239.28	33446.7	1641.97	0.0177	0.8003	62.5
699.6	38105.5	236.967	33653	1579.83	0.0188	0.7998	62.02
701.25	38215	234.73	33832.1	1602.17	0.0195	0.7994	61.02
702.9	38321	231.958	34057.2	1769.97	0.0164	0.799	59.6
704.55	38446.8	229.323	34323.2	1753.1	0.0179	0.7983	59.49
706.2	38562.6	226.09	34506.9	1796.46	0.0169	0.7973	61.05
707.85	38685	222.502	34555.3	1724.22	0.0176	0.7963	60.81
709.5	38802.7	218.347	34746.4	1819.36	0.0177	0.7958	63.43
711.15	38919.9	213.639	34706.5	1876.67	0.018	0.795	64.4
712.8	39035.1	207.928	34798.6	1941.59	0.0175	0.7944	64.41
714.45	39154.1	201.558	34967.6	1803.51	0.0179	0.7937	64.09
716.1	39270	194.52	35146.5	1870.4	0.018	0.793	64.82
717.75	39385.6	186.007	35248.1	1865.71	0.0162	0.7925	63.93
719.4	39514.2	176.767	35461.7	1874.75	0.0161	0.7917	64.19
721.05	39644	165.9	35595.2	1879.73	0.0156	0.791	64.6
722.7	39778.1	152.677	35714.4	1973.55	0.0148	0.7902	64.08
724.35	39919.2	138.803	35896.4	1975.98	0.0153	0.7896	63.28
726	40055.3	125.551	36103.2	1971.51	0.0162	0.7889	64.35
727.65	40184.2	112.38	36178.6	2100.37	0.0161	0.7883	63.3
729.3	40314.5	98.8182	36407.2	2002.61	0.0153	0.7876	64.34
730.95	40451.6	86.7651	36487.6	2106.55	0.0163	0.7868	64.85
732.6	40580.1	74.4431	36604.6	2006.47	0.0145	0.786	64.55
734.25	40724.7	65.201	36785	1910.61	0.0142	0.7855	63.51
735.9	40872.2	61.3839	37008.4	1892.09	0.014	0.785	64
737.55	41022.2	62.3187	37121.7	1911.1	0.0149	0.7843	65.2
739.2	41163.5	66.391	37187.1	1905.21	0.0153	0.7832	65.28
740.85	41301	72.1625	37331.2	1926.89	0.0149	0.7827	65.74
742.5	41442.8	79.6487	37445.8	1774.29	0.0141	0.7819	65.14
744.15	41592.2	91.093	37618.8	1848.04	0.0136	0.7811	67.13
745.8	41747	107.352	37630.5	1885.94	0.0131	0.7797	67.94
747.45	41908.3	126.749	37719.3	1803.12	0.0128	0.7793	66.55
749.1	42073.9	147.588	37934	1500.92	0.0128	0.7793	64.07
750.75	42239.9	167.42	38186.3	1436.1	0.0135	0.7786	63.93
752.4	42396.4	185.915	38303.3	1678.5	0.014	0.7774	64.63
754.05	42548.2	203.362	38390.1	1503.99	0.014	0.7763	64.62
755.7	42700.2	219.597	38516.1	1567.31	0.0138	0.7759	65.45
757.35	42854.7	233.163	38589.9	1444.86	0.015	0.7756	64.15
759	42996.4	245.238	38784.2	1451.47	0.0152	0.7751	65.89
760.65	43136.5	256.393	38808.1	1401.49	0.015	0.7746	65.12
762.3	43278.5	267.245	38969.2	1436.44	0.0145	0.7742	64.47
763.95	43425.2	277.379	39124.1	1393.53	0.0146	0.7737	63.58
765.6	43571.3	286.833	39291.4	1574.24	0.0143	0.7729	63.66
767.25	43720.7	295.37	39408.9	1593.74	0.0142	0.7721	62.5
768.9	43871.1	303.093	39612	1675.32	0.014	0.7715	64.33
770.55	44023.4	310.17	39633.9	1783.52	0.0137	0.771	65.22
772.2	44179.2	316.956	39713.9	1909.08	0.0135	0.7705	65.75
773.85	44338.2	323.515	39819.8	1690.4	0.0146	0.7697	63.83
775.5	44485.2	330.611	40084.1	1721.87	0.0138	0.7691	65.65
777.15	44640.1	337.653	40106.8	1722.31	0.0144	0.7688	62.84
778.8	44789.1	344.744	40413.5	1567.96	0.0144	0.7677	62.73
780.45	44938.2	351.996	40556.2	1709.39	0.0146	0.7668	62.73
782.1	45085.3	358.871	40702.8	1725.03	0.0153	0.7659	64.21
783.75	45225.9	365.399	40753.2	1709.57	0.0154	0.7655	64.66
785.4	45366.1	371.48	40872.4	1537.75	0.0155	0.7649	63.92
787.05	45505.2	377.012	41074	1427.76	0.0161	0.7646	62.97
788.7	45639.4	382.267	41276.5	1486.9	0.0164	0.7641	62.37
790.35	45771.5	387.346	41459.8	1470.42	0.0171	0.7638	61.22
792	45897.8	392.431	41694.3	1486.8	0.0178	0.7633	60.8
793.65	46019.5	398.042	41887.4	1490.31	0.0168	0.7626	60.66
795.3	46148.4	404.321	42068.5	1506.32	0.0163	0.762	62.02
796.95	46280.8	411.322	42133.2	1414.79	0.0168	0.7609	62.3
798.6	46409.5	418.458	42281.9	1361.35	0.019	0.7598	61.77
800.25	46524.1	427.064	42480.9	1365.9	0.0175	0.7589	61.32
801.9	46648.2	436.977	42668.9	1408.96	0.0169	0.758	61.36
803.55	46777.2	448.656	42825.8	1334.51	0.0157	0.757	62.01
805.2	46915.8	461.344	42933	1345.16	0.0158	0.7559	61.6
806.85	47053.8	475.495	43106	1406.18	0.0153	0.7549	59.74
808.5	47196.5	490.076	43376.4	1465.04	0.016	0.7541	60.7
810.15	47333.3	506.934	43462.5	1508.26	0.0147	0.7535	59.46
811.8	47482.6	525.339	43698.1	1580.16	0.0143	0.7527	60.42
813.45	47635.9	544.719	43786.5	1645.52	0.0144	0.752	59.23
815.1	47788	566.414	44024.4	1680.62	0.0135	0.7511	59.52
816.75	47950.9	591.726	44164.8	1738.92	0.012	0.75	59.71
818.4	48133.5	619.15	44315.7	1818.08	0.0115	0.7491	61.96
820.05	48324.3	645.124	44317.5	1778.46	0.0122	0.7487	61.65
821.7	48505.1	669.373	44489.4	1832.24	0.0128	0.7482	63.56
823.35	48677.6	693.974	44513.3	1854.87	0.0121	0.7477	64.48
825	48860.5	717.151	44606.3	1792.12	0.012	0.7472	64.76
826.65	49043.9	736.827	44740.8	1815.26	0.0132	0.7466	65.62
828.3	49212	755.218	44835.5	1777.11	0.0125	0.7458	65.11
829.95	49389.3	771.104	45022.3	1684.88	0.0124	0.7448	64.73
831.6	49568.4	783.998	45194.7	1664.33	0.0124	0.7437	64.61
833.25	49747.8	793.37	45348.7	1644.46	0.0131	0.743	64.66
834.9	49917.3	799.761	45488.5	1590.92	0.0134	0.7426	65.01
836.55	50082.6	803.45	45604.8	1564.76	0.0134	0.7418	65.61
838.2	50249.2	804.485	45706.3	1387.66	0.013	0.7409	63.13
839.85	50420.9	803.315	45976.8	1470.26	0.0138	0.7402	62.09
841.5	50582	800.078	46167.6	1472.75	0.0138	0.7394	62.6
843.15	50744.1	794.935	46273.8	1520.5	0.0137	0.7386	64.97
844.8	50907.5	788.147	46269.8	1306.11	0.014	0.7378	63.45
846.45	51067.5	779.269	46481.8	1437.24	0.0137	0.7373	61.98
848.1	51231.1	768.465	46687.5	1538.06	0.0136	0.7368	61.76
849.75	51395.3	756.117	46835.7	1539.99	0.0139	0.736	62.14
851.4	51556.8	741.357	46954.4	1581.62	0.0132	0.7352	62.24
853.05	51726.4	725.924	47092.2	1589.04	0.0138	0.7344	63.45
854.7	51889	709.849	47161.8	1603.22	0.0141	0.7337	61.95
856.35	52048.1	693.639	47401	1617.76	0.0146	0.7331	61.72
858	52202.1	676.581	47570.8	1600.63	0.0143	0.7326	62.18
859.65	52359.2	660.149	47696	1824.36	0.0151	0.7319	60.32
861.3	52508	644.224	47995	1756.13	0.0159	0.7314	58.31
862.95	52649.9	628.323	48352.3	1754.72	0.016	0.7307	58.81
864.6	52790.7	611.047	48497	1704.97	0.0148	0.73	60.02
866.25	52942.9	594.672	48582.5	1778.8	0.0155	0.7292	59.92
867.9	53089.1	578.831	48772.7	1629.8	0.0157	0.7287	58.58
869.55	53233.7	563.884	49065.9	1688.46	0.016	0.7285	58.2
871.2	53375.4	550.338	49265.8	1692.96	0.0166	0.7282	59.27
872.85	53512	536.738	49360.8	1667.04	0.0153	0.7279	57.91
874.5	53659.7	525.609	49649.7	1581.24	0.0169	0.7277	58.03
876.15	53794	515.633	49817.1	1542.86	0.0169	0.7275	58.06
877.8	53927.8	507.166	49983.7	1560.4	0.0177	0.727	59.41
879.45	54056.2	499.702	50053.3	1584.74	0.0176	0.7268	59.8
881.1	54185.5	492.678	50192.3	1627.74	0.016	0.7263	59.6
882.75	54327.8	486.478	50380.2	1562.13	0.015	0.7258	58.86
884.4	54479.1	481.977	50600.1	1644.3	0.0164	0.7259	60.97
886.05	54617.6	478.372	50610.1	1673.27	0.0156	0.7258	60.35
887.7	54763	475.978	50818	1730.96	0.0156	0.7254	61.51
889.35	54908.8	474.951	50900.8	1725.79	0.0163	0.7247	60.51
891	55048.2	475.222	51137.1	1749.94	0.0149	0.724	60.81
892.65	55200.9	477.279	51283.4	1718.43	0.0144	0.7233	60.26
894.3	55359.6	481.485	51489.2	1778.87	0.0139	0.7227	60.16
895.95	55524	487.497	51667.4	1647.28	0.0151	0.7221	59.19
897.6	55674.9	495.392	51904	1661.78	0.0157	0.7218	59.87
899.25	55820.8	505.804	52017.9	1612.8	0.0151	0.7211	59.92
900.9	55971.9	518.44	52173.1	1642.92	0.015	0.7205	60.02
902.55	56124.2	533.65	52325.9	1574.51	0.0145	0.72	59.62
904.2	56282.2	550.792	52505.8	1549.59	0.0147	0.7193	60.58
905.85	56438.7	571.562	52591.8	1584.93	0.0135	0.7188	61.77
907.5	56609	594.198	52662.7	1676.74	0.0136	0.7179	60.41
909.15	56777.4	618.813	52899.6	1610.8	0.0135	0.7172	59.95
910.8	56947.9	643.174	53080.3	1598.62	0.0143	0.7171	60.48
912.45	57108.3	668.16	53192.7	1541.65	0.0144	0.717	60.18
914.1	57268.5	692.771	53354.3	1466.75	0.0146	0.7164	60.9
915.75	57426	716.532	53451.9	1523.42	0.0149	0.7158	61.11
917.4	57581.1	739.104	53584.5	1322.45	0.0151	0.7152	59.69
919.05	57733.4	759.776	53811	1329.25	0.016	0.715	61.73
920.7	57877.5	780.116	53827.6	1269.19	0.0158	0.7147	62.26
922.35	58023.5	798.861	53931.7	1256.68	0.0168	0.7137	62.68
924	58160.8	817.403	54041.9	1338.35	0.0168	0.7136	61.34
925.65	58298.2	837.465	54252.6	1393.36	0.0154	0.7138	60.24
927.3	58448.5	856.755	54470.3	1315.77	0.0159	0.7141	61.29
928.95	58593.8	875.45	54544.8	1387.86	0.0162	0.714	62.18
930.6	58736.4	894.975	54630.9	1362.23	0.0152	0.7132	61.45
932.25	58888.5	912.933	54827.5	1371.75	0.0162	0.7131	62.7
933.9	59031.4	929.879	54894.5	1394.18	0.0167	0.7131	62
935.55	59170.2	945.608	55079.1	1382.5	0.0174	0.7127	60.39
937.2	59303.3	960.729	55345.6	1405.81	0.0175	0.713	60.19
938.85	59435.3	975.803	55522	1305.17	0.017	0.7128	61.04
940.5	59571.1	989.799	55618.9	1280.14	0.018	0.7122	62.17
942.15	59700.1	1004	55699.1	1323.61	0.0174	0.7113	62.56
943.8	59833.3	1018.57	55825.8	1330.52	0.0167	0.7102	62.04
945.45	59972.1	1032.89	56017.5	1387.69	0.017	0.7095	61.6
947.1	60109	1047.43	56205.1	1407.29	0.0167	0.7093	61.29
948.75	60248.1	1061.7	56384	1525.11	0.0171	0.7088	60.32
950.4	60384.1	1076.47	56624.1	1566.81	0.0166	0.7082	59.59
952.05	60524.8	1091.36	56849.6	1518.61	0.0165	0.7075	59.22
953.7	60666.5	1106.58	57045.5	1552.78	0.016	0.7065	59.36
955.35	60812.4	1120.68	57201.7	1584.28	0.0173	0.7055	60.52
957	60947.8	1135.48	57288.1	1594.3	0.0162	0.7045	60.71
958.65	61092.2	1150.48	57438.5	1591.59	0.0157	0.7034	60.7
960.3	61241.3	1165.29	57599.6	1538.62	0.0157	0.7028	60.33
961.95	61391.2	1179.64	57777	1590.48	0.0159	0.7024	61.07
963.6	61539.4	1193.3	57877.9	1608.08	0.0163	0.7017	61.6
965.25	61683.5	1206.52	57994.6	1555.07	0.0163	0.701	61.83
966.9	61827.6	1219.61	58124	1585.63	0.0158	0.7003	62.53
968.55	61977.1	1231.91	58224.2	1632.68	0.0159	0.6997	59.98
970.2	62125.2	1243.36	58530.8	1653.83	0.0161	0.6989	61.16
971.85	62271.8	1254.24	58607.1	1766.52	0.0157	0.6983	61.34
973.5	62422.1	1264.52	58742.5	1674.23	0.0152	0.6978	59.13
975.15	62577.3	1273.69	59030.8	1699.92	0.0154	0.697	60.72
976.8	62730.7	1281.86	59080.1	1690.74	0.0153	0.6963	61.23
978.45	62885.2	1289.27	59191.9	1742.55	0.0145	0.6957	62.65
980.1	63049	1295.57	59248.1	1778.21	0.0142	0.6948	63.23
981.75	63216.7	1300.67	59352.7	1766.09	0.0142	0.6941	61.76
983.4	63383.7	1304.63	59573.5	1846.09	0.0143	0.6935	64.21
985.05	63550.4	1307.51	59573	1914	0.0135	0.6926	63.62
986.7	63727.1	1309.3	59739.2	1975.75	0.0136	0.6916	62.34
988.35	63902	1310.18	59954	1974.25	0.0133	0.6905	62.3
990	64082.2	1310.26	60099.1	1969.76	0.0125	0.6894	62.11
991.65	64274.4	1310.07	60254.7	1977.9	0.0128	0.6884	61.01
993.3	64461.3	1309.94	60461	1964.03	0.0134	0.6874	61.03
994.95	64640.7	1310.13	60606.2	1960.67	0.0151	0.6863	60.16
996.6	64799.9	1310.51	60809.1	1930.56	0.0143	0.6852	59.42
998.25	64968.3	1311.34	60994.5	1984.75	0.0147	0.6842	59.84
999.9	65132.7	1312.66	61120.4	1976.88	0.0131	0.6831	58.35
1001.55	65316.8	1314.58	61367.4	1949.09	0.0127	0.6822	57.63
1003.2	65506.9	1317.12	61564	1980.64	0.0128	0.681	57.84
1004.85	65696.2	1320.28	61701.8	2007.4	0.0127	0.6798	58.37
1006.5	65887.5	1324.05	61820.4	2094.18	0.0123	0.6788	59.11
1008.15	66084.7	1328.2	61929.7	2053.57	0.0131	0.6779	57.55
1009.8	66270	1332.95	62177.1	2118.68	0.0124	0.677	58.38
1011.45	66467.3	1338.26	62278.4	2166.08	0.0122	0.6762	57.9
1013.1	66668	1344.14	62464	2156.76	0.0123	0.6751	57.75
1014.75	66867.4	1350.64	62634.3	2159.76	0.012	0.6741	57.01
1016.4	67071	1357.58	62840	2265.54	0.012	0.6733	57.34
1018.05	67274.6	1365.02	62983.7	2302.86	0.0119	0.6725	57.3
1019.7	67481.4	1372.54	63157.3	2253.41	0.0125	0.6721	55.72
1021.35	67678.5	1379.72	63434.7	2354.01	0.0129	0.6714	56.25
1023	67869.3	1386.32	63570.1	2312.32	0.0129	0.6706	55.67
1024.65	68060.1	1392.03	63792.5	2379.38	0.0129	0.6698	56.51
1026.3	68251.7	1396.66	63912.7	2482.15	0.0126	0.6693	56.25
1027.95	68448	1399.95	64117.6	2422.03	0.0127	0.6685	56.01
1029.6	68642.9	1401.9	64331.9	2334.58	0.013	0.6676	55.7
1031.25	68833.6	1402.65	64544.5	2153.78	0.0133	0.6668	56.05
1032.9	69019.5	1402.44	64696.3	2230.48	0.0138	0.6661	56.48
1034.55	69199.7	1401.35	64833	2215.2	0.0135	0.6653	59.89
1036.2	69383.9	1399.45	64776.2	2233.58	0.0125	0.6646	59.26
1037.85	69582.6	1397.89	64990	2400.72	0.0145	0.6633	59.23
1039.5	69753.6	1396.49	65167.5	2390.16	0.0146	0.6624	56.96
1041.15	69924.6	1395.27	65532.4	2390.79	0.0136	0.6615	55.89
1042.8	70108.1	1394.22	65809.7	2466.6	0.013	0.6605	56.06
1044.45	70300.4	1393.3	65997.4	2352.94	0.0131	0.6596	55.33
1046.1	70492	1392.45	66248.1	2461.56	0.0134	0.6586	54.63
1047.75	70679.4	1391.72	66505.8	2461.34	0.0144	0.6577	55.65
1049.4	70853.4	1391.02	66630.7	2376.04	0.0152	0.6569	53.52
1051.05	71018.3	1390.22	67008.8	2303.31	0.015	0.6561	53
1052.7	71185.7	1389.46	67259.6	2258.77	0.0152	0.6553	52.94
1054.35	71351.1	1388.86	67475.9	2070.32	0.0159	0.6545	51.86
1056	71509.4	1388.42	67760	2016.06	0.0162	0.6538	51.6
1057.65	71665.4	1388.16	67974.6	1972.48	0.0172	0.6531	51.02
1059.3	71812	1387.98	68214.1	1982.42	0.0178	0.6524	51.61
1060.95	71954.1	1387.85	68368.7	1967.74	0.0183	0.6516	51.93
1062.6	72092.2	1387.71	68543.3	1945.05	0.0168	0.651	51.92
1064.25	72243.2	1387.64	68741	1918.4	0.0164	0.6503	51.39
1065.9	72397.7	1387.72	68972.2	1912.4	0.0169	0.6497	50.78
1067.55	72548.1	1387.98	69200.4	1995.96	0.0161	0.6489	50.57
1069.2	72705.8	1388.53	69406.4	2032.04	0.0165	0.6483	51.15
1070.85	72859.8	1389.35	69563.8	1926.62	0.0163	0.6477	52.12
1072.5	73016.6	1390.35	69675.2	1954.89	0.0161	0.6469	52.4
1074.15	73174.7	1391.45	69831.1	2056.89	0.0157	0.6463	52.37
1075.8	73336.8	1392.67	70013.5	2100.43	0.0153	0.6456	51.01
1077.45	73503.8	1394.14	70308.5	2169.67	0.0145	0.6448	53.13
1079.1	73680.3	1395.95	70345.7	2221.14	0.0144	0.6443	54.71
1080.75	73857.7	1397.92	70422.5	2070.2	0.0149	0.6438	53.53
1082.4	74029.8	1399.86	70698.9	1980.24	0.0154	0.6433	52.76
1084.05	74196.3	1401.62	70924.4	1974.5	0.016	0.6426	53.05
1085.7	74357.1	1403.18	71075.4	1960.1	0.0161	0.6418	54.07
1087.35	74516.5	1404.58	71180.5	1924.66	0.0162	0.6409	54.89
1089	74675.4	1405.8	71298	1876.75	0.0162	0.6403	56.62
1090.65	74834.8	1406.79	71355.2	1821.79	0.0166	0.6398	56.13
1092.3	74990.4	1407.55	71546.2	1752.81	0.0168	0.6395	56.61
1093.95	75143.9	1408.14	71674.2	1735.1	0.0183	0.639	57.84
1095.6	75285.3	1408.67	71753.3	1692.8	0.018	0.6384	58.19
1097.25	75428.7	1409.25	71881	1667.97	0.0183	0.6378	59.4
1098.9	75569.8	1409.93	71959.4	1664.05	0.0185	0.6374	60.3
1100.55	75709.8	1410.7	72051.3	1716.06	0.0199	0.6368	61.22
1102.2	75839.8	1411.63	72148.5	1722.94	0.0191	0.6364	59.79
1103.85	75975.4	1412.81	72388.6	1749.35	0.0178	0.6359	59.35
1105.5	76120.9	1414.27	72568.2	1785.12	0.0173	0.6355	59.92
1107.15	76270.8	1416.1	72693.3	1808.45	0.0166	0.6349	60.38
1108.8	76427.4	1418.3	72824.2	1864.8	0.0168	0.6344	60.32
1110.45	76582	1420.99	72986.8	1924.49	0.0161	0.6336	61.03
1112.1	76743.9	1424.15	73105.5	1974.65	0.0157	0.6326	60.53
1113.75	76909.6	1427.82	73303.3	2027.64	0.0148	0.6321	60.05
1115.4	77086.2	1431.67	73502.9	2089.52	0.0147	0.6313	59
1117.05	77264.5	1435.29	73755.8	1992.95	0.0158	0.631	57.3
1118.7	77429.8	1438.82	74044.2	1943.55	0.0153	0.6302	57.11
1120.35	77601.2	1442.01	74226.5	1937.89	0.0157	0.6297	57.85
1122	77768.5	1444.81	74345	1913.38	0.0162	0.6288	58.14
1123.65	77930.9	1447.26	74491.7	1907.68	0.0158	0.6278	59.29
1125.3	78097.7	1449.3	74586.7	1887.07	0.0162	0.6269	58.73
1126.95	78260.2	1450.91	74784.7	1863.88	0.0171	0.6265	58.87
1128.6	78414.5	1452.16	74935.1	1861.35	0.0174	0.6264	59.27
1130.25	78566	1453.09	75067.4	1804.53	0.0177	0.626	59.29
1131.9	78715	1453.68	75215.4	1830.95	0.0167	0.6255	61.12
1133.55	78872.5	1453.9	75261.4	1843.05	0.0166	0.625	60.91
1135.2	79032	1453.83	75418.4	1835.01	0.0173	0.6239	61.61
1136.85	79184.6	1453.53	75528.1	1816.77	0.018	0.6236	60.96
1138.5	79331.8	1453.08	75704.8	1769.43	0.0184	0.6235	62
1140.15	79475.7	1452.5	75784	1789.45	0.0181	0.623	62.37
1141.8	79622.3	1451.88	75900.6	1810.83	0.0191	0.6222	59.6
1143.45	79761.4	1451.18	76200	1822.74	0.0198	0.6222	58.82
1145.1	79895.2	1450.34	76399.5	1818.71	0.0201	0.6218	57.31
1146.75	80027.5	1449.29	76647.6	1830.68	0.0195	0.6213	57.57
1148.4	80163.6	1448.02	76797.3	1854.47	0.0193	0.6208	56.37
1150.05	80301.7	1446.67	77049.8	1793.17	0.0203	0.62	55.72
1151.7	80432.7	1445.22	77275.1	1794.45	0.0211	0.6193	54.39
1153.35	80559.2	1443.49	77530.3	1770.96	0.0201	0.619	54.05
1155	80691.6	1441.75	77722.4	1764.22	0.0214	0.6186	55.52
1156.65	80816.1	1439.74	77798.5	1760.25	0.0204	0.6177	54.5
1158.3	80946.8	1437.57	78030.4	1744.42	0.0203	0.617	55.11
1159.95	81078.6	1435.44	78161.5	1715.71	0.0216	0.6162	55.55
1161.6	81202.6	1433.06	78299.5	1699.35	0.0204	0.6156	54.93
1163.25	81333.9	1430.68	78491.2	1692.65	0.021	0.615	55.14
1164.9	81461.6	1428.22	78632.8	1727.67	0.0208	0.6142	56.23
1166.55	81590.9	1425.83	78726	1732.67	0.0212	0.6133	56.23
1168.2	81717.6	1423.44	78888	1710.8	0.0208	0.6125	56.5
1169.85	81847.1	1421.13	79036	1678.93	0.0201	0.6117	55.12
1171.5	81981.3	1419.04	79268.2	1661.18	0.0198	0.6112	54.53
1173.15	82117.4	1417.4	79446.9	1665.34	0.021	0.6104	55.29
1174.8	82246.1	1416.07	79555.4	1639.13	0.0204	0.61	55.77
1176.45	82378.7	1415.17	79675.5	1616.98	0.0212	0.6094	56.22
1178.1	82506.7	1414.62	79793.2	1597.5	0.0224	0.6087	55.42
1179.75	82627.8	1414.31	79968.5	1599.42	0.0219	0.6081	56.34
1181.4	82751.9	1414.21	80059.5	1595.69	0.0208	0.6077	56.99
1183.05	82882.3	1414.29	80165	1586.27	0.021	0.6071	57.37
1184.7	83011.8	1414.5	80286.3	1550.6	0.0221	0.6067	56.83
1186.35	83134.8	1414.79	80446.2	1547.64	0.0228	0.606	56.04
1188	83254.1	1415.13	80614.6	1529.98	0.0221	0.6057	56.85
1189.65	83377.3	1415.48	80708.3	1530.83	0.0226	0.6054	58.47
1191.3	83497.9	1415.83	80759.5	1534.56	0.0225	0.6052	57.18
1192.95	83619.2	1416.17	80950	1538.43	0.0219	0.6049	58.24
1194.6	83743.8	1416.48	81032	1524.15	0.0224	0.6044	58.49
1196.25	83865.9	1416.75	81150.1	1520.59	0.0234	0.6034	57.35
1197.9	83982.6	1416.98	81337.4	1525.24	0.0237	0.6029	58.57
1199.55	84098.1	1417.16	81410.2	1527.15	0.0227	0.6026	58.75
1201.2	84219	1417.3	81532.2	1520.92	0.0219	0.6019	58.64
1202.85	84344.5	1417.38	81667.9	1521.51	0.0215	0.6012	58.17
1204.5	84472.3	1417.41	81822.1	1529.35	0.0229	0.6004	58.97
1206.15	84592.1	1417.32	81920	1532.54	0.021	0.5998	58.79
1207.8	84722.9	1417.16	82067	1521.13	0.0223	0.599	58.11
1209.45	84846.7	1416.86	82233.8	1530.9	0.0214	0.5982	58.13
1211.1	84975.7	1416.39	82368.8	1514.58	0.0203	0.5978	57.87
1212.75	85111.8	1415.79	82510.7	1525.49	0.0211	0.5973	59.61
1214.4	85242.8	1415	82558	1533.09	0.0208	0.5969	58.93
1216.05	85375.6	1414.07	82712.4	1555.97	0.0216	0.5964	60.01
1217.7	85503.7	1412.84	82791.8	1568.23	0.0201	0.5959	61.4
1219.35	85641.4	1411.37	82859.2	1550.65	0.02	0.5952	60.21
1221	85780.2	1409.65	83046.2	1547.13	0.0198	0.5945	60.2
1222.65	85920.6	1407.87	83171.8	1564.2	0.0212	0.594	60.56
1224.3	86051.6	1405.73	83278.5	1578.79	0.0198	0.5934	62.33
1225.95	86192.2	1403.38	83325.9	1577.2	0.0197	0.5928	62.11
1227.6	86333.3	1400.86	83459.9	1582.77	0.0195	0.5922	61.72
1229.25	86475.8	1398.15	83601	1607.88	0.0191	0.592	62.97
1230.9	86621.8	1395.4	83669.8	1606.82	0.0193	0.5918	62.64
1232.55	86765.9	1392.68	83809	1594.99	0.0198	0.5911	62.48
1234.2	86906.6	1389.77	83938.1	1606.63	0.0189	0.5904	63.85
1235.85	87054.2	1386.88	84000.3	1636.25	0.019	0.5897	64.03
1237.5	87201.2	1383.89	84112.1	1663.97	0.018	0.5893	63.52
1239.15	87356.4	1381.14	84258.3	1686.36	0.0186	0.5889	62.83
1240.8	87506.9	1378.52	84417.9	1671.82	0.0186	0.5887	62.67
1242.45	87657.8	1375.95	84549	1747.03	0.0179	0.5876	64.2
1244.1	87814.5	1373.26	84609.9	1719.01	0.0162	0.5868	63.16
1245.75	87988.1	1371.17	84789.5	1767.86	0.018	0.5867	64.37
1247.4	88144.2	1369.2	84861.3	1790.62	0.0174	0.5859	63.03
1249.05	88305.8	1367.42	85059.8	1756.61	0.0177	0.5846	62.91
1250.7	88465	1365.75	85204.7	1760.01	0.0176	0.584	63.12
1252.35	88625.5	1364.26	85330.3	1732.58	0.0182	0.5832	63.56
1254	88781.1	1362.79	85444	1754.08	0.0175	0.5824	61.81
1255.65	88943.2	1361.51	85666.5	1749.05	0.0175	0.5813	61.81
1257.3	89105.3	1360.46	85811.4	1694.68	0.0178	0.5805	61.35
1258.95	89264.7	1359.71	85975.1	1735.31	0.0188	0.5798	62.5
1260.6	89415.8	1359.24	86057	1709.71	0.0191	0.5787	61.12
1262.25	89565.3	1359.04	86271.6	1701.44	0.0178	0.5779	61
1263.9	89726	1359.29	86423.8	1699.05	0.0185	0.5773	60.86
1265.55	89880.1	1359.97	86579.3	1655.26	0.0197	0.5767	59.73
1267.2	90025.4	1361.13	86783.6	1651.79	0.0187	0.5758	60.59
1268.85	90178.8	1362.8	86886.6	1664.79	0.0189	0.5751	60.27
1270.5	90330.6	1364.94	87052.7	1680.61	0.0194	0.5742	59.98
1272.15	90478.7	1367.51	87221.2	1658.37	0.0199	0.5732	59.45
1273.8	90623.6	1370.64	87408.6	1657.16	0.019	0.5726	58.53
1275.45	90775.3	1374.29	87610.9	1701.98	0.0188	0.5719	60.08
1277.1	90929.1	1378.5	87685.1	1776.86	0.0186	0.5716	59.43
1278.75	91084.5	1383.51	87886.3	1706.32	0.0174	0.5711	58.27
1280.4	91250.4	1388.48	88117.9	1712.18	0.019	0.5702	56.98
1282.05	91402.5	1393.58	88354.9	1716.07	0.019	0.5685	57.19
1283.7	91555.1	1398.9	88512.3	1687.18	0.0182	0.5669	56.84
1285.35	91715.3	1404.21	88699	1691.29	0.0179	0.5653	55.98
1287	91878.1	1409	88914	1697.48	0.0191	0.5649	56.97
1288.65	92031.1	1413.59	89023.4	1671.86	0.0184	0.5641	56.26
1290.3	92190.2	1417.65	89227.4	1631.4	0.0191	0.5632	56.02
1291.95	92343.9	1421.17	89397.5	1614.53	0.0199	0.562	55.85
1293.6	92491.6	1424.37	89561.6	1650.54	0.0193	0.5612	56.49
1295.25	92644.2	1427.02	89692	1624.71	0.0204	0.5599	57.26
1296.9	92789	1429.26	89814.2	1605.99	0.0204	0.5587	56.03
1298.55	92934.1	1431.12	90029.2	1595.82	0.0207	0.5578	55.8
1300.2	93076.9	1432.64	90199.6	1602.11	0.021	0.5567	57.31
1301.85	93217.8	1433.91	90279.7	1587.43	0.0202	0.5556	56.85
1303.5	93365.1	1434.92	90457.4	1585.69	0.0205	0.5545	55.06
1305.15	93510.5	1435.71	90698.9	1591.58	0.0212	0.5532	55.73
1306.8	93650.9	1436.36	90823.6	1600.9	0.0213	0.552	56.71
1308.45	93791.4	1436.94	90933.6	1616.93	0.0203	0.5509	54.82
1310.1	93938.9	1437.5	91200.1	1580.58	0.021	0.5497	54.82
1311.75	94081.7	1438.11	91362.5	1594.76	0.0208	0.5486	54.02
1313.4	94226.1	1438.81	91561.3	1592.81	0.0211	0.5474	52.02
1315.05	94368.7	1439.6	91836.1	1576.42	0.0206	0.5463	52.94
1316.7	94515	1440.48	91950.6	1592.28	0.0203	0.5451	53.5
1318.35	94663.9	1441.4	92082.7	1571.54	0.0201	0.5441	52.32
1320	94814.5	1442.35	92305.1	1552.66	0.019	0.5433	51.7
1321.65	94974.3	1443.17	92488.3	1568.2	0.0227	0.5427	52.92
1323.3	95108.5	1443.92	92582	1551.03	0.0217	0.5422	51.95
1324.95	95248.8	1444.6	92778.7	1559.36	0.0206	0.5416	52.38
1326.6	95396.3	1445.18	92906.5	1565.61	0.0191	0.541	53.02
1328.25	95555.7	1445.63	93022.2	1565.3	0.0189	0.5405	52.44
1329.9	95716.8	1445.94	93192.6	1585.26	0.0191	0.5401	52.88
1331.55	95877.1	1446.17	93319.5	1587.68	0.0191	0.5396	53.29
1333.2	96036.8	1446.36	93448.1	1577.35	0.0196	0.5394	53.58
1334.85	96193.2	1446.53	93578.4	1578.6	0.0189	0.5388	53.65
1336.5	96355.3	1446.74	93718.6	1586.51	0.0198	0.5384	53.06
1338.15	96510.1	1447	93892.7	1579.16	0.0187	0.5381	53.9
1339.8	96674	1447.35	93999.5	1581.68	0.0186	0.5378	54.44
1341.45	96838.6	1447.83	94118.5	1578.5	0.019	0.5375	54.81
1343.1	96999.9	1448.46	94246.6	1582.04	0.0192	0.5372	54.2
1344.75	97160.1	1449.22	94420.5	1589.08	0.0187	0.5369	55.39
1346.4	97324.4	1450.06	94511.4	1596.71	0.0194	0.5367	55.53
1348.05	97482.7	1450.95	94654.5	1603.2	0.0199	0.5366	56.24
1349.7	97637.2	1451.89	94771.1	1619.1	0.0194	0.5365	56.14
1351.35	97795.9	1452.85	94933.5	1569.72	0.0193	0.5366	56.26
1353	97954.9	1453.8	95068.5	1579.43	0.0206	0.5367	56.25
1354.65	98104.4	1454.77	95207.2	1587.72	0.0193	0.5366	55.51
1356.3	98263.6	1455.68	95388.4	1608.29	0.0207	0.5368	59.47
1357.95	98412.3	1456.55	95345.1	1635.18	0.0205	0.5372	58.85
1359.6	98562.4	1457.39	95529.8	1645.01	0.0204	0.5381	58.52
1361.25	98712.6	1458.18	95703.1	1641.98	0.0216	0.5387	57.7
1362.9	98854.1	1458.96	95903.1	1649.37	0.0203	0.5388	58.4
1364.55	99004.9	1459.76	96026	1661.48	0.0208	0.5402	59.25
1366.2	99151.8	1460.6	96130.5	1684.56	0.021	0.5398	60.22
1367.85	99297.3	1461.55	96242.1	1704.17	0.0203	0.5413	61.39
1369.5	99447.6	1462.6	96332.3	1702.92	0.021	0.5414	60.62
1371.15	99592.7	1463.75	96528.1	1705.87	0.022	0.5414	61.82
1372.8	99731.4	1465.02	96627.7	1694.53	0.0225	0.5417	61.01
1374.45	99866.9	1466.43	96833.6	1670.66	0.022	0.542	60.26
1376.1	100005	1467.91	97032.8	1669.23	0.0225	0.542	61.15
1377.75	100140	1469.44	97145.9	1675.08	0.0231	0.5419	61.04
1379.4	100272	1471.02	97316.6	1649.04	0.0232	0.5423	60.6
1381.05	100403	1472.63	97495	1651.93	0.0235	0.5426	61.06
1382.7	100533	1474.28	97625.2	1661.96	0.0231	0.5425	60.93
1384.35	100664	1475.91	97790.4	1635.22	0.0237	0.5424	60.19
1386	100793	1477.56	97986.5	1655.26	0.023	0.5419	60.38
1387.65	100925	1479.15	98131.5	1624.81	0.0228	0.5413	60.18
1389.3	101059	1480.58	98301.7	1623.38	0.0246	0.5407	60.17
1390.95	101183	1481.88	98454.4	1623.37	0.0256	0.5409	60
1392.6	101302	1483.19	98611.8	1606.31	0.0236	0.5403	60.13
1394.25	101432	1484.42	98756.3	1630.64	0.0232	0.5392	60.69
1395.9	101564	1485.56	98879.5	1645.72	0.0234	0.5392	61.89
1397.55	101694	1486.62	98971.2	1649.99	0.0229	0.5382	62.94
1399.2	101828	1487.57	99074.3	1662.29	0.023	0.5374	63.91
1400.85	101961	1488.41	99178.5	1685.02	0.0218	0.5366	63.45
1402.5	102102	1489.07	99352.3	1679.99	0.0224	0.5354	63.12
1404.15	102240	1489.53	99523.1	1672.37	0.022	0.5343	62.66
1405.8	102380	1489.77	99690.9	1678.85	0.0213	0.533	62.61
1407.45	102526	1489.77	99836.2	1696.27	0.0211	0.5325	61.93
1409.1	102672	1489.5	100007	1703.85	0.02	0.5319	61.37
1410.75	102828	1488.95	100169	1722.43	0.0186	0.5304	61.77
1412.4	102995	1488.3	100291	1740.81	0.0184	0.5292	62.77
1414.05	103164	1487.76	100386	1739.88	0.0192	0.5283	63.37
1415.7	103327	1487.37	100495	1736.61	0.0197	0.5273	63.46
1417.35	103486	1487.14	100627	1711.88	0.0194	0.5265	64.01
1419	103647	1487.12	100738	1711.1	0.0197	0.5258	64.57
1420.65	103806	1487.27	100848	1702.54	0.0198	0.5251	65.13
1422.3	103965	1487.61	100962	1665.23	0.0207	0.524	65.73
1423.95	104117	1488.12	101075	1649.07	0.0207	0.5229	66.14
1425.6	104269	1488.81	101188	1678.49	0.0211	0.5216	66.42
1427.25	104419	1489.73	101303	1683.58	0.0198	0.5194	65.81
1428.9	104580	1490.87	101469	1682.13	0.0204	0.5178	65.59
1430.55	104736	1492.15	101618	1690.23	0.0207	0.5164	65.29
1432.2	104891	1493.61	101770	1678.86	0.0198	0.5142	64.97
1433.85	105052	1495.06	101928	1691.04	0.0211	0.5121	65.8
1435.5	105205	1496.56	102043	1667.27	0.021	0.5104	65.9
1437.15	105359	1498.02	102187	1655.86	0.0215	0.5087	64.96
1438.8	105509	1499.44	102377	1656.66	0.0221	0.5067	64.45
1440.45	105657	1500.81	102556	1669.38	0.0231	0.5048	64.21
1442.1	105799	1502.31	102728	1688.73	0.0213	0.503	62.37
1443.75	105953	1503.91	102992	1679.78	0.0209	0.5011	60.85
1445.4	106110	1505.64	103249	1683.18	0.0206	0.4992	59.71
1447.05	106271	1507.54	103476	1712.04	0.02	0.4972	60.06
1448.7	106437	1509.6	103631	1737.56	0.0195	0.4952	60.92
1450.35	106608	1511.76	103761	1734.29	0.0196	0.4932	60.18
1452	106778	1514.16	103967	1748.07	0.0185	0.4912	59.04
1453.65	106960	1516.89	104182	1753.63	0.0178	0.4893	58.08
1455.3	107149	1520.2	104386	1788.4	0.0172	0.4874	57.36
1456.95	107346	1524.27	104589	1790.28	0.0168	0.4855	56.82
1458.6	107548	1528.78	104780	1815.68	0.017	0.4834	56.52
1460.25	107749	1533.55	104962	1777.4	0.0168	0.4814	56.64
1461.9	107952	1538.24	105125	1782.56	0.0168	0.4797	57.96
1463.55	108157	1542.48	105228	1750.73	0.0177	0.478	57.41
1465.2	108352	1546.35	105415	1713.52	0.0174	0.4763	55.59
1466.85	108551	1549.7	105650	1692.52	0.0182	0.4746	56.26
1468.5	108742	1552.8	105773	1722.81	0.0177	0.473	57.04
1470.15	108940	1555.67	105899	1732.78	0.0181	0.4714	58.04
1471.8	109133	1558.35	106018	1739.28	0.018	0.47	60.1
1473.45	109328	1560.78	106092	1761.7	0.018	0.4685	62.4
1475.1	109523	1563	106156	1775.86	0.0177	0.467	62.16
1476.75	109723	1565.01	106338	1784.22	0.018	0.4659	61.76
1478.4	109920	1566.91	106533	1778.38	0.0177	0.4646	61.29
1480.05	110121	1568.83	106735	1813.9	0.0173	0.4633	61.46
1481.7	110327	1570.81	106913	1847.06	0.0172	0.4621	61.94
1483.35	110534	1572.82	107083	1882.34	0.0171	0.461	62.31
1485	110743	1574.77	107265	1900.39	0.017	0.4593	62.09
1486.65	110955	1576.61	107491	1881.22	0.0168	0.4577	61.76
1488.3	111170	1578.29	107722	1883.96	0.0168	0.4558	61.43
1489.95	111386	1579.78	107958	1836.65	0.0174	0.4542	61.24
1491.6	111594	1581.04	108185	1833.14	0.0181	0.4526	61.19
1493.25	111795	1582.15	108395	1797.92	0.0172	0.451	60.83
1494.9	112008	1583.14	108623	1798.92	0.0175	0.4494	60.61
1496.55	112218	1584	108839	1780.63	0.0185	0.448	61.05
1498.2	112417	1584.74	109021	1771.66	0.0177	0.4468	61.09
1499.85	112625	1585.37	109222	1748.37	0.0182	0.4458	59.6
1501.5	112829	1585.91	109503	1736.08	0.0195	0.4447	59.02
1503.15	113020	1586.38	109741	1727.52	0.0198	0.4436	60.21
1504.8	113207	1586.83	109883	1724.21	0.0206	0.4427	60.95
1506.45	113388	1587.26	110050	1721.86	0.0201	0.4418	61.16
1508.1	113574	1587.67	110249	1721.29	0.0204	0.441	60.63
1509.75	113757	1588.11	110491	1723.69	0.0204	0.4404	60.24
1511.4	113941	1588.55	110727	1729.06	0.0223	0.4402	60.51
1513.05	114109	1588.99	110925	1735.21	0.0216	0.4408	60.6
1514.7	114282	1589.42	111129	1738.19	0.0225	0.4408	61.01
1516.35	114448	1589.83	111321	1730.42	0.0226	0.4402	61.66
1518	114614	1590.24	111500	1720.95	0.0221	0.4395	62.15
1519.65	114784	1590.63	111683	1740.08	0.0227	0.4388	62.21
1521.3	114950	1591.01	111892	1733.68	0.0228	0.4381	62.16
1522.95	115116	1591.37	112112	1714.87	0.0228	0.4375	61.95
1524.6	115281	1591.66	112332	1725.38	0.0231	0.4368	61.22
1526.25	115445	1591.89	112582	1716.42	0.0233	0.4362	60.99
1527.9	115607	1592.02	112805	1699.66	0.0249	0.4355	62.08
1529.55	115759	1592.05	112946	1698.45	0.0244	0.4349	62.68
1531.2	115915	1591.99	113110	1692.6	0.0251	0.4341	63.28
1532.85	116066	1591.91	113271	1700.46	0.0256	0.4334	63.64
1534.5	116215	1591.81	113441	1698.04	0.0255	0.4327	63.91
1536.15	116365	1591.71	113619	1699.65	0.0267	0.4319	64.4
1537.8	116508	1591.61	113783	1679.5	0.0274	0.4311	64.64
1539.45	116648	1591.52	113960	1686.43	0.0265	0.4302	64.64
1541.1	116793	1591.47	114135	1677.08	0.0274	0.4294	64.9
1542.75	116933	1591.43	114300	1675.74	0.0274	0.4286	64.81
1544.4	117074	1591.4	114476	1679.48	0.0271	0.4279	64.34
1546.05	117216	1591.39	114668	1677.7	0.0291	0.4271	65.07
1547.7	117349	1591.4	114811	1680.79	0.0283	0.4261	65.7
1549.35	117485	1591.43	114956	1679.16	0.0272	0.4251	65.03
1551	117628	1591.5	115156	1676.8	0.0288	0.4242	64.95
1552.65	117763	1591.6	115330	1676.85	0.0275	0.4232	65.31
1554.3	117905	1591.75	115485	1665.76	0.0279	0.4224	66
1555.95	118045	1591.93	115623	1671.47	0.0284	0.4215	66.41
1557.6	118182	1592.14	115765	1663.12	0.03	0.4207	65.23
1559.25	118313	1592.39	115971	1656.17	0.0291	0.4199	63.63
1560.9	118448	1592.68	116187	1650.43	0.0286	0.4189	62.63
1562.55	118586	1593.03	116379	1652.83	0.0283	0.418	64.09
1564.2	118725	1593.42	116474	1655.66	0.0292	0.4172	66.72
1565.85	118861	1593.84	116526	1662.42	0.0298	0.4163	66.93
1567.5	118994	1594.28	116664	1656.77	0.031	0.4152	66.84
1569.15	119122	1594.79	116818	1656.41	0.0293	0.4141	66.4
1570.8	119258	1595.34	116980	1657.72	0.029	0.413	66.14
1572.45	119395	1595.93	117137	1647.87	0.0302	0.4118	66.06
1574.1	119528	1596.51	117284	1651.78	0.0316	0.4111	66.61
1575.75	119655	1597.13	117404	1658.69	0.0302	0.4104	66.92
1577.4	119788	1597.79	117536	1651.91	0.03	0.4095	67.34
1579.05	119923	1598.5	117667	1659.79	0.03	0.4083	67.07
1580.7	120057	1599.24	117821	1657.6	0.0311	0.4069	66.48
1582.35	120188	1600	117990	1653.61	0.0313	0.4058	65.74
1584	120318	1600.77	118159	1651.32	0.0321	0.4047	65.08
1585.65	120445	1601.59	118318	1652.61	0.0314	0.4038	64.26
1587.3	120575	1602.47	118486	1655.38	0.0309	0.403	64.41
1588.95	120708	1603.37	118623	1654.27	0.0318	0.4024	65.27
1590.6	120836	1604.25	118736	1653.37	0.0329	0.4027	66.09
1592.25	120961	1605.14	118843	1652.26	0.0323	0.4026	66.51
1593.9	121088	1606.06	118963	1647.97	0.0317	0.4024	66.58
1595.55	121218	1607.04	119091	1656.92	0.0307	0.402	66.29
1597.2	121351	1608.03	119238	1657.14	0.0305	0.4022	65.89
1598.85	121486	1609.08	119387	1654.69	0.0308	0.4015	66.02
1600.5	121619	1610.08	119519	1649.2	0.033	0.4015	65.89
1602.15	121744	1611.13	119651	1655.71	0.032	0.4017	64.88
1603.8	121872	1612.29	119816	1660.04	0.0319	0.4007	65.05
1605.45	122001	1613.51	119950	1661.66	0.0326	0.4003	65.97
1607.1	122127	1614.77	120057	1658	0.0329	0.4004	66.14
1608.75	122253	1616.06	120182	1657.59	0.0332	0.4005	66.37
1610.4	122377	1617.38	120303	1655.49	0.0328	0.4007	67.1
1612.05	122502	1618.78	120407	1658.57	0.0317	0.4008	67.02
1613.7	122632	1620.15	120539	1661.46	0.0327	0.4008	67.08
1615.35	122758	1621.58	120668	1657.19	0.0319	0.4007	66.44
1617	122887	1623.03	120819	1655.58	0.0328	0.4002	66.53
1618.65	123013	1624.53	120944	1659.36	0.0325	0.4001	67.23
1620.3	123140	1626.05	121050	1665.04	0.0341	0.3995	67.56
1621.95	123261	1627.67	121171	1672.71	0.0341	0.3986	67.17
1623.6	123382	1629.38	121321	1672.68	0.0333	0.3986	66.85
1625.25	123507	1631.14	121466	1670.87	0.0331	0.3986	66.78
1626.9	123632	1632.8	121601	1664.95	0.0364	0.3982	67.35
1628.55	123746	1634.51	121712	1671.7	0.0361	0.3976	67.51
1630.2	123861	1636.29	121838	1673.85	0.0347	0.3974	67.46
1631.85	123980	1638.18	121969	1670.75	0.0318	0.3973	67.02
1633.5	124111	1640	122110	1669.54	0.0322	0.3972	66.88
1635.15	124240	1641.73	122240	1671.82	0.0322	0.3969	66.27
1636.8	124369	1643.3	122384	1678.08	0.0339	0.3964	66.22
1638.45	124492	1644.9	122514	1675.81	0.0317	0.396	65.8
1640.1	124624	1646.42	122659	1680.19	0.032	0.3954	65.55
1641.75	124754	1647.87	122796	1676.7	0.032	0.3952	65.33
1643.4	124884	1649.2	122931	1679.95	0.0333	0.3948	65.45
1645.05	125010	1650.49	123056	1674.5	0.0324	0.3943	65.16
1646.7	125139	1651.74	123192	1675.7	0.0319	0.3938	64.87
1648.35	125271	1653.01	123324	1680.51	0.0304	0.3931	64.48
1650	125409	1654.16	123462	1682.46	0.0322	0.3931	64.57
1651.65	125539	1655.22	123584	1672.12	0.0323	0.3932	64.49
1653.3	125669	1656.21	123704	1676.13	0.0318	0.3931	65.57
1654.95	125801	1657.09	123789	1684.33	0.0324	0.3928	67.11
1656.6	125930	1657.93	123864	1696.55	0.0298	0.3924	66.61
1658.25	126071	1658.58	124001	1695.86	0.0322	0.392	66.25
1659.9	126202	1659.08	124145	1696.43	0.0338	0.3915	65.63
1661.55	126327	1659.46	124296	1693.88	0.0355	0.3907	66.45
1663.2	126446	1659.76	124402	1696.57	0.0366	0.3899	67.95
1664.85	126561	1659.98	124485	1707.85	0.0367	0.3892	67.85
1666.5	126677	1660.16	124623	1710.71	0.035	0.3886	67.49
1668.15	126799	1660.31	124768	1706.56	0.0355	0.3881	67.38
1669.8	126918	1660.43	124904	1709.37	0.0342	0.3876	66.21
1671.45	127043	1660.57	125067	1717.63	0.0367	0.3869	66.1
1673.1	127159	1660.77	125205	1737.02	0.0359	0.386	66.68
1674.75	127278	1661.06	125326	1737.55	0.0356	0.3852	67.04
1676.4	127399	1661.49	125454	1746.38	0.039	0.3841	66.2
1678.05	127509	1662.08	125615	1760.88	0.0395	0.3831	65.97
1679.7	127618	1662.88	125759	1767.12	0.0393	0.3821	65.63
1681.35	127728	1663.94	125905	1799.31	0.0382	0.3813	65.34
1683	127841	1665.32	126057	1788.16	0.0383	0.3803	65.12
1684.65	127954	1666.98	126201	1771.72	0.0411	0.3793	64.08
1686.3	128060	1668.95	126359	1768.39	0.0412	0.3785	63.69
1687.95	128166	1671.24	126491	1771.35	0.0418	0.378	63.64
1689.6	128270	1673.92	126610	1782.94	0.0407	0.3776	63.32
1691.25	128378	1677.02	126739	1781.3	0.04	0.3772	63.84
1692.9	128487	1680.46	126847	1786.15	0.0398	0.3768	66.03
1694.55	128597	1684.31	126909	1794.17	0.0386	0.3763	66.11
1696.2	128711	1688.35	127034	1778.62	0.0396	0.3757	65.64
1697.85	128822	1692.6	127166	1775.21	0.0393	0.3753	65.06
1699.5	128934	1696.77	127302	1751.76	0.0414	0.3749	64.98
1701.15	129040	1701.46	127424	1745.98	0.0373	0.3743	64.76
1702.8	129158	1705.95	127543	1746.75	0.04	0.3738	65.7
1704.45	129268	1710.57	127631	1744.74	0.0396	0.3733	66.68
1706.1	129380	1715.31	127718	1747.76	0.039	0.373	66.83
1707.75	129493	1720.31	127829	1743.56	0.0372	0.3728	66.42
1709.4	129612	1725.11	127953	1731.77	0.0391	0.3726	66.38
1711.05	129726	1730.03	128061	1727.8	0.038	0.3727	67.16
1712.7	129842	1734.92	128148	1725.52	0.0375	0.3726	68.49
1714.35	129960	1739.7	128222	1727.08	0.0372	0.3725	69.07
1716	130079	1744.23	128314	1725.85	0.0373	0.3726	69.22
1717.65	130198	1748.62	128418	1720.67	0.0359	0.3725	68.24
1719.3	130322	1752.73	128552	1722.09	0.0347	0.3724	67.96
1720.95	130450	1756.38	128672	1722.38	0.0342	0.3729	68.28
1722.6	130579	1759.58	128774	1726.38	0.0332	0.3736	68.43
1724.25	130712	1762.33	128878	1723.77	0.0316	0.3742	68.14
1725.9	130851	1764.49	128992	1737.67	0.0321	0.375	67.35
1727.55	130988	1766.31	129122	1734.32	0.0316	0.3758	67.59
1729.2	131127	1768.13	129225	1740.71	0.0315	0.3767	68.33
1730.85	131266	1769.98	129313	1745.54	0.0311	0.3775	67.72
1732.5	131407	1772.08	129437	1753.34	0.0278	0.3784	66.66
1734.15	131564	1774.26	129578	1751.64	0.0277	0.3793	66.22
1735.8	131721	1776.6	129700	1758.94	0.0268	0.3802	66.27
1737.45	131883	1779.18	129810	1765.97	0.0254	0.3811	66.5
1739.1	132053	1781.73	129918	1772.05	0.0271	0.382	66.48
1740.75	132212	1784.53	130033	1776.3	0.0257	0.383	66.3
1742.4	132380	1787.72	130152	1788.16	0.025	0.3838	67.04
1744.05	132552	1791.43	130249	1798.89	0.0237	0.3845	67.08
1745.7	132733	1795.62	130369	1805.38	0.0232	0.3854	66.76
1747.35	132917	1800.22	130502	1814.21	0.0229	0.3864	66.61
1749	133104	1805.24	130632	1826.35	0.0223	0.3871	66.41
1750.65	133295	1810.13	130770	1829.54	0.0237	0.3877	66.46
1752.3	133474	1815.55	130903	1840.67	0.0214	0.3882	65.85
1753.95	133673	1820.73	131059	1851.57	0.0219	0.3885	65.76
1755.6	133867	1825.88	131199	1863.11	0.0209	0.3886	64.89
1757.25	134070	1830.82	131367	1903.31	0.0203	0.388	63.87
1758.9	134279	1835.48	131561	1935.92	0.0199	0.3874	62.81
1760.55	134493	1839.87	131762	1973.56	0.0193	0.3866	61.85
1762.2	134715	1844.2	131970	1967.32	0.018	0.3858	60.85
1763.85	134952	1848.73	132176	2009.89	0.0168	0.3852	60.34
1765.5	135207	1853.8	132365	2040.5	0.0167	0.3846	60.22
1767.15	135463	1859.83	132546	2083	0.0169	0.3838	60.62
1768.8	135717	1867.28	132715	2118.78	0.0159	0.383	60.22
1770.45	135989	1876.58	132921	2145.49	0.0146	0.3823	59.47
1772.1	136285	1886.91	133147	2116.58	0.015	0.3815	59.03
1773.75	136572	1898.05	133358	2181.89	0.0147	0.3808	58.52
1775.4	136867	1908.95	133573	2159.34	0.0148	0.38	58.17
1777.05	137160	1919.41	133791	2187.45	0.0144	0.3791	58.03
1778.7	137463	1929.16	134003	2213.57	0.0142	0.3783	58.01
1780.35	137771	1938.45	134217	2252.97	0.0137	0.3775	56.37
1782	138089	1947.76	134516	2314.05	0.0134	0.3766	55.16
1783.65	138416	1956.7	134812	2407.82	0.0124	0.3758	55.38
1785.3	138770	1964.2	135050	2432.3	0.0124	0.375	55.92
1786.95	139124	1970.19	135282	2402.86	0.0126	0.3742	55
1788.6	139474	1975.47	135597	2452.71	0.0123	0.3735	54.4
1790.25	139835	1980.79	135904	2558.5	0.0123	0.3726	54.43
1791.9	140195	1985.79	136199	2529.39	0.0124	0.3717	52.56
1793.55	140552	1989.85	136619	2519.74	0.0119	0.3708	51.86
1795.2	140926	1992.72	136969	2563.15	0.0119	0.3699	51.92
1796.85	141301	1994.67	137269	2573.96	0.0119	0.3689	51.92
1798.5	141677	1996.5	137584	2599.91	0.0126	0.368	52.06
1800.15	142031	1998.9	137894	2630.09	0.0124	0.367	51.98
1801.8	142395	2003.93	138232	2731.89	0.0118	0.3663	51.87
1803.45	142776	2015	138589	2741.61	0.0129	0.3653	52.13
1805.1	143127	2035.05	138932	2729.25	0.0122	0.3647	52.35
1806.75	143497	2063.3	139274	2779.88	0.0129	0.3639	52.56
1808.4	143849	2102.32	139621	2760.63	0.0124	0.3631	51.42
1810.05	144215	2150.65	140081	2749.24	0.0125	0.3624	51.65
1811.7	144578	2203.81	140429	2813.61	0.0133	0.3619	52.61
1813.35	144920	2263.72	140724	2806.02	0.0132	0.3612	52.78
1815	145267	2329.83	141093	2818.53	0.0132	0.3605	53.01
1816.65	145614	2400.07	141459	2766.79	0.0136	0.36	53.45
1818.3	145952	2479.91	141797	2818.71	0.0129	0.3591	53.07
1819.95	146308	2559.75	142195	2879.3	0.0133	0.3585	53.05
1821.6	146653	2635.37	142576	2729.58	0.0137	0.3577	53.01
1823.25	146991	2700.05	142954	2764.57	0.0149	0.3573	53.22
1824.9	147300	2763.46	143303	2720.05	0.0143	0.3566	52.98
1826.55	147624	2826.46	143690	2830.86	0.0139	0.3559	52.92
1828.2	147958	2890.25	144063	2879.64	0.0131	0.3557	52.79
1829.85	148311	2946.9	144440	2852.69	0.014	0.3552	53.39
1831.5	148642	2996.92	144752	2873.13	0.0146	0.3548	53.38
1833.15	148961	3044.18	145101	2900.97	0.0145	0.3541	52.46
1834.8	149283	3090.77	145524	2930.07	0.014	0.3537	51.96
1836.45	149618	3135.79	145905	3063.31	0.0139	0.3533	51.98
1838.1	149954	3177.54	146261	3076.43	0.0141	0.3527	51.6
1839.75	150287	3212.9	146643	3074.19	0.0152	0.3522	51.47
1841.4	150595	3243.84	146996	3116.57	0.0156	0.3519	50.5
1843.05	150896	3272.39	147375	3132.25	0.0155	0.3511	52.31
1844.7	151200	3299.82	147582	3208.91	0.0149	0.3507	51.94
1846.35	151515	3325.83	147944	3340.45	0.0148	0.3501	52.97
1848	151833	3350.13	148227	3341.94	0.0149	0.3494	52.43
1849.65	152150	3372.64	148608	3390.55	0.0148	0.3488	50.88
1851.3	152470	3393.24	149039	3458.27	0.0146	0.3484	51.43
1852.95	152795	3411.81	149330	3469.32	0.0145	0.3478	52.94
1854.6	153123	3427.9	149564	3509.45	0.0149	0.3469	52.91
1856.25	153443	3441.67	149912	3503.75	0.0149	0.3463	51.84
1857.9	153762	3453.3	150324	3523.13	0.0149	0.3456	52.02
1859.55	154082	3463.23	150626	3561.15	0.0139	0.345	52.01
1861.2	154426	3471.09	150934	3586.6	0.0143	0.3444	53.32
1862.85	154762	3476.94	151161	3658.96	0.0131	0.3437	54.05
1864.5	155130	3480.81	151433	3700.12	0.0138	0.3431	54.03
1866.15	155479	3482.23	151759	3715.48	0.0128	0.3426	53.28
1867.8	155855	3481.45	152131	3736.39	0.0129	0.342	53.08
1869.45	156230	3478.59	152470	3786.04	0.0131	0.3415	53.15
1871.1	156600	3473.81	152795	3782.62	0.0134	0.3409	53.06
1872.75	156961	3465.2	153135	3802.2	0.012	0.3403	52.73
1874.4	157365	3455.47	153482	3819.83	0.0124	0.3398	52.77
1876.05	157756	3444.83	153805	3884.23	0.0128	0.3392	53.27
1877.7	158135	3432.52	154098	3842.13	0.0128	0.3386	52.71
1879.35	158517	3419.15	154488	3894.12	0.0132	0.338	52.22
1881	158888	3403.95	154874	3827.95	0.0132	0.3373	52.01
1882.65	159259	3390.18	155258	3834.96	0.0152	0.3367	51.74
1884.3	159580	3374	155646	3777.73	0.0148	0.336	51.01
1885.95	159913	3357.33	156085	3729.49	0.0157	0.3354	51.18
1887.6	160226	3339.35	156451	3682.53	0.0163	0.3348	50.34
1889.25	160528	3318.8	156883	3737.55	0.0163	0.3343	50.59
1890.9	160831	3293.29	157265	3723.54	0.0152	0.3336	50.8
1892.55	161156	3264.15	157650	3719.92	0.0151	0.333	50.97
1894.2	161484	3229.53	158027	3675.3	0.0143	0.3323	48.64
1895.85	161832	3191.77	158592	3707.59	0.0143	0.3317	50.02
1897.5	162179	3149.07	158868	3717.94	0.0138	0.331	50.66
1899.15	162541	3103.43	159199	3607.21	0.0136	0.3301	50.18
1900.8	162910	3062.52	159567	3594.15	0.0149	0.3296	51.36
1902.45	163245	3024.59	159827	3508.96	0.0158	0.3289	50.49
1904.1	163563	2987.04	160206	3441.53	0.016	0.3281	49.82
1905.75	163878	2948.37	160556	3449.77	0.0159	0.3274	52.33
1907.4	164194	2906.95	160714	3480.92	0.0156	0.3269	54.57
1909.05	164519	2862.46	160893	3479.84	0.0151	0.3262	54.65
1910.7	164853	2812.4	161221	3503.7	0.014	0.3255	53.76
1912.35	165215	2761.21	161621	3504.26	0.0137	0.3248	53.44
1914	165587	2707.27	161999	3536.72	0.0122	0.3242	53.51
1915.65	166003	2664.53	162356	3511.56	0.0128	0.3237	52.7
1917.3	166403	2632.46	162785	3381.21	0.0126	0.3227	52.09
1918.95	166808	2613.54	163182	3288.39	0.0129	0.3222	51.34
1920.6	167205	2605.6	163555	3270.28	0.0127	0.3216	53.62
1922.25	167608	2607.18	163736	3253.35	0.0126	0.3211	54.82
1923.9	168016	2616.02	163983	3249.41	0.0132	0.3204	55.88
1925.55	168407	2630.11	164243	3214.2	0.0126	0.3199	55.28
1927.2	168817	2645.85	164614	3212.27	0.0136	0.3195	55.13
1928.85	169196	2660.84	164970	3159.82	0.0143	0.3187	55.02
1930.5	169559	2674.23	165354	3151.09	0.0138	0.3182	53.3
1932.15	169936	2684.13	165887	3048.61	0.0152	0.3176	53.37
1933.8	170277	2690.99	166294	2960.76	0.0151	0.3173	51.39
1935.45	170622	2694.23	166854	2973.22	0.0145	0.3168	52.48
1937.1	170981	2693.55	167175	2992.01	0.0148	0.316	52.32
1938.75	171335	2688.25	167600	3016.4	0.0145	0.3155	52.4
1940.4	171697	2677.52	168008	3002.63	0.014	0.315	52.61
1942.05	172071	2660.99	168389	3021.88	0.0137	0.3143	52.43
1943.7	172453	2637.14	168822	3020.18	0.013	0.3138	52.34
1945.35	172857	2607.73	169214	3084.24	0.0132	0.3132	51.92
1947	173256	2571.85	169614	3114.92	0.0126	0.3128	53.28
1948.65	173674	2535.48	169898	3018.89	0.0131	0.3122	53.73
1950.3	174079	2505.39	170220	2967.49	0.0152	0.3117	53.29
1951.95	174427	2476.57	170599	2972.55	0.0159	0.3113	55.13
1953.6	174760	2444.35	170837	2958.33	0.0153	0.3108	54.9
1955.25	175108	2405.57	171215	2995.41	0.0142	0.3101	53.97
1956.9	175483	2362.25	171644	3061.7	0.0136	0.3098	53.65
1958.55	175874	2320.65	172044	3111.1	0.0138	0.3097	54.09
1960.2	176260	2281.26	172395	3145.64	0.0131	0.3094	53.34
1961.85	176667	2250.41	172856	3124.82	0.0136	0.3088	52.84
1963.5	177060	2228.63	173302	3023.23	0.0139	0.3088	51.87
1965.15	177444	2215.79	173793	2851.85	0.0146	0.3084	51.73
1966.8	177809	2208.13	174194	2778.3	0.0145	0.3081	50.71
1968.45	178179	2204.35	174603	2805.58	0.0146	0.3079	51.32
1970.1	178545	2203.12	174908	2917.23	0.0134	0.3075	53.19
1971.75	178946	2205.2	175141	2967.59	0.014	0.3071	53.38
1973.4	179331	2209.03	175508	2859.59	0.0146	0.3067	52.3
1975.05	179700	2212.93	175981	2775.44	0.0162	0.3063	51.18
1976.7	180033	2215.9	176463	2636.43	0.0176	0.3059	50.17
1978.35	180340	2217.39	176942	2564.23	0.0169	0.3053	49.92
1980	180660	2217.79	177352	2494.42	0.0188	0.3051	49.47
1981.65	180947	2216.63	177755	2500.45	0.0182	0.3049	50.35
1983.3	181244	2213.97	178067	2513.99	0.0178	0.3046	50.86
1984.95	181549	2209.9	178402	2630.51	0.0171	0.3044	51.23
1986.6	181866	2204.2	178765	2663.75	0.0157	0.3041	51.1
1988.25	182211	2197.66	179170	2670.59	0.015	0.3038	50.41
1989.9	182573	2192.22	179596	2584.05	0.0159	0.3035	49.62
1991.55	182915	2187.24	179991	2526.55	0.0158	0.303	49.89
1993.2	183260	2182.51	180290	2576.12	0.015	0.3026	50.98
1994.85	183623	2179.83	180549	2549.54	0.0155	0.3021	53.71
1996.5	183977	2179.92	180708	2567.16	0.0155	0.3016	53.09
1998.15	184330	2183.99	181035	2576.74	0.0151	0.3011	52.61
1999.8	184693	2192.63	181366	2630.75	0.0148	0.3006	53.79
2001.45	185065	2204.45	181612	2678.53	0.0154	0.3003	52.8
2003.1	185421	2218.4	182001	2709.46	0.0151	0.2999	52.52
2004.75	185784	2233.57	182375	2631.77	0.015	0.2999	50.86
2006.4	186152	2249.49	182832	2624.74	0.0146	0.2998	49.95
2008.05	186528	2265.42	183234	2694.91	0.0148	0.2996	51.33
2009.7	186900	2281.05	183507	2665.1	0.0145	0.2994	51.52
2011.35	187281	2295.68	183854	2638.64	0.0151	0.299	50.95
2013	187645	2309.4	184248	2653.77	0.0153	0.2985	51.39
2014.65	188006	2321.75	184586	2655.78	0.0152	0.298	50.97
2016.3	188370	2331.97	184988	2595.03	0.0158	0.2974	50.64
2017.95	188722	2339.8	185376	2595.5	0.0172	0.2967	51.4
2019.6	189047	2344.9	185697	2571.29	0.017	0.296	51.01
2021.25	189374	2346.86	186097	2526.33	0.0184	0.2952	50.4
2022.9	189678	2345.65	186522	2495.1	0.0194	0.2945	50.28
2024.55	189967	2342.11	186911	2459.4	0.0215	0.2938	50.85
2026.2	190229	2334.83	187259	2467.32	0.0196	0.2932	50.64
2027.85	190516	2322.58	187645	2508.39	0.0182	0.2924	50.4
2029.5	190826	2304.82	188032	2554.73	0.0175	0.2917	51.41
2031.15	191149	2284.55	188339	2559.17	0.0183	0.2908	51.33
2032.8	191459	2259.63	188706	2525.6	0.0172	0.2899	51.53
2034.45	191789	2230.9	189029	2542.04	0.0167	0.2889	52.18
2036.1	192130	2199.56	189329	2539.84	0.017	0.2879	53.44
2037.75	192468	2161.77	189579	2543.4	0.0155	0.287	54.01
2039.4	192839	2124.94	189853	2519.4	0.0159	0.2862	55.81
2041.05	193202	2092.54	190051	2545.83	0.0165	0.2852	57.38
2042.7	193553	2066.27	190252	2499.56	0.0174	0.2843	58.63
2044.35	193887	2045.49	190486	2463.95	0.0195	0.2837	56
2046	194186	2024.68	190946	2411.12	0.0188	0.2829	54.91
2047.65	194495	2001.14	191331	2434.55	0.0171	0.2819	55.17
2049.3	194838	1977.86	191649	2459.23	0.0174	0.2811	54.69
2050.95	195175	1953.48	192022	2450.1	0.0159	0.2804	54.57
2052.6	195545	1933.09	192376	2475.42	0.0162	0.2795	54.08
2054.25	195909	1916.81	192779	2353.98	0.0161	0.2787	52.59
2055.9	196278	1905.84	193243	2289.49	0.0167	0.278	53.2
2057.55	196634	1899.67	193566	2258.31	0.017	0.277	53.77
2059.2	196985	1896.68	193877	2168.83	0.0181	0.2763	54.51
2060.85	197315	1895.35	194147	2153.19	0.0193	0.2755	56.99
2062.5	197625	1894.79	194335	2164.15	0.0182	0.2747	58.08
2064.15	197954	1895.41	194609	2108.65	0.0192	0.2738	55.13
2065.8	198269	1897.02	195124	2127.91	0.0193	0.2731	55.98
2067.45	198582	1899.65	195446	2066.4	0.0193	0.2723	54.17
2069.1	198896	1902.72	195931	2018.34	0.0206	0.2716	54.16
2070.75	199191	1905.86	196309	1988.3	0.0209	0.2708	54.69
2072.4	199483	1908.81	196643	1967.4	0.0223	0.2698	54.74
2074.05	199757	1911.58	197001	1963.02	0.0223	0.2689	55.38
2075.7	200033	1914.17	197306	1953.21	0.0225	0.268	56.71
2077.35	200306	1916.55	197559	1968.26	0.0233	0.2672	56.93
2079	200571	1918.71	197882	1959.85	0.024	0.2664	57.37
2080.65	200830	1920.74	198187	1963.5	0.0234	0.2655	57.96
2082.3	201095	1922.67	198480	1966.06	0.0236	0.2647	57.46
2083.95	201359	1924.55	198827	1958.6	0.0234	0.2639	57.73
2085.6	201627	1926.32	199122	1966.92	0.0244	0.2631	58.85
2087.25	201884	1928	199371	1961.24	0.0243	0.2622	59.76
2088.9	202143	1929.71	199621	1967.39	0.0231	0.2613	59.73
2090.55	202416	1931.34	199906	1973.18	0.0238	0.2605	60.46
2092.2	202682	1932.89	200157	1973.03	0.0239	0.2597	61.09
2093.85	202948	1934.35	200408	1969.88	0.0237	0.2589	60.19
2095.5	203216	1935.62	200715	1982.75	0.0241	0.2582	61.74
2097.15	203481	1936.57	200920	1982.03	0.0235	0.2576	60.74
2098.8	203753	1937.19	201232	1990	0.0221	0.2569	61.26
2100.45	204044	1937.75	201483	1986.07	0.0207	0.2562	61.19
2102.1	204356	1938.99	201755	1996.49	0.0206	0.2557	60.71
2103.75	204669	1941.94	202037	2030.49	0.0199	0.2552	61.73
2105.4	204995	1947.87	202267	2033.81	0.0189	0.2547	60.76
2107.05	205337	1957.56	202581	2042.83	0.0189	0.2543	60.45
2108.7	205680	1970.98	202863	2052.39	0.0192	0.254	61.13
2110.35	206018	1988.01	203106	2047.03	0.019	0.2537	60.83
2112	206360	2006.04	203388	2046.7	0.0203	0.2533	60.79
2113.65	206682	2024.91	203662	2053.49	0.02	0.253	60.67
2115.3	207007	2042.5	203956	2053.88	0.0213	0.2528	59.32
2116.95	207314	2059.04	204328	2062.65	0.0218	0.2526	58.05
2118.6	207612	2075.34	204706	2087.78	0.0217	0.2522	57.9
2120.25	207914	2091.29	205045	2094.06	0.0214	0.252	57.15
2121.9	208219	2105.92	205430	2093.52	0.0224	0.2518	56.16
2123.55	208512	2119.9	205825	2114.29	0.0225	0.2518	56.29
2125.2	208803	2133.8	206159	2116.17	0.022	0.2516	56.46
2126.85	209102	2146.83	206486	2134.75	0.0224	0.2516	56.41
2128.5	209395	2158.93	206812	2139.42	0.0223	0.2515	57.76
2130.15	209688	2169.18	207067	2145.97	0.024	0.2514	57.32
2131.8	209962	2178.62	207393	2166.96	0.0233	0.2514	58.76
2133.45	210244	2186.93	207627	2154.85	0.0234	0.2513	59.17
2135.1	210524	2194.23	207910	2185.78	0.0242	0.2512	58.92
2136.75	210795	2200.79	208227	2195.1	0.0244	0.2512	58.74
2138.4	211064	2206.53	208529	2186.12	0.0247	0.2511	59.59
2140.05	211330	2211.58	208783	2202.91	0.0244	0.251	59.86
2141.7	211599	2215.92	209070	2208.66	0.0247	0.2509	59.25
2143.35	211866	2219.66	209392	2221.34	0.0256	0.2509	59.65
2145	212122	2222.56	209667	2213.32	0.0272	0.2509	59.59
2146.65	212363	2225.03	209945	2229.56	0.0262	0.2508	61.05
2148.3	212615	2227.24	210165	2235.7	0.0249	0.2507	60.48
2149.95	212879	2228.97	210470	2236.32	0.0261	0.2507	60.69
2151.6	213131	2230.32	210735	2240.17	0.0254	0.2506	61.07
2153.25	213390	2231.26	210990	2241.47	0.0253	0.2505	61.41
2154.9	213650	2231.84	211245	2246.33	0.0255	0.2504	61.77
2156.55	213909	2232.19	211499	2249.84	0.0251	0.2505	61.48
2158.2	214172	2232.32	211777	2247.4	0.0246	0.2503	61.79
2159.85	214440	2232.3	212026	2241.99	0.0242	0.2502	62.38
2161.5	214713	2232.17	212252	2247.93	0.0252	0.25	63.28
2163.15	214975	2231.95	212467	2257.18	0.0252	0.25	62.95
2164.8	215237	2231.69	212737	2251.04	0.0249	0.25	61.97
2166.45	215502	2231.41	213033	2256.47	0.0237	0.2498	62.69
2168.1	215781	2231.24	213263	2256.91	0.0258	0.2496	62.32
2169.75	216038	2231.18	213539	2255.73	0.0247	0.2493	62.21
2171.4	216305	2231.44	213805	2260.19	0.0248	0.2492	61.67
2173.05	216572	2232	214089	2265.98	0.0257	0.249	62.04
2174.7	216830	2232.76	214342	2267.77	0.0271	0.2486	61.5
2176.35	217075	2233.75	214640	2262.14	0.0273	0.2483	61.21
2178	217318	2235.11	214920	2266.15	0.0264	0.248	62.08
2179.65	217570	2236.92	215151	2269.39	0.0255	0.2476	62.01
2181.3	217831	2239.35	215421	2281.93	0.0247	0.2472	61.75
2182.95	218101	2242.56	215711	2267.51	0.0235	0.2467	60.66
2184.6	218386	2246.83	216020	2282.29	0.0237	0.2461	62.43
2186.25	218669	2253.19	216222	2283.52	0.022	0.2455	61.54
2187.9	218974	2262.48	216530	2282.98	0.0211	0.2448	61.7
2189.55	219294	2275.17	216790	2285.36	0.0213	0.2441	62.16
2191.2	219611	2292.51	217026	2302.05	0.0205	0.2434	62.86
2192.85	219942	2316.45	217252	2327.07	0.0189	0.2426	63.06
2194.5	220302	2344.81	217502	2344.5	0.0191	0.2419	62.3
2196.15	220658	2374.93	217797	2385.82	0.0199	0.2411	61.41
2197.8	221003	2408.12	218109	2387.08	0.0191	0.2403	60.53
2199.45	221363	2444.51	218438	2431.6	0.0185	0.2396	60.37
2201.1	221735	2484.42	218741	2474.73	0.018	0.2389	59.26
2202.75	222120	2527.75	219108	2496.26	0.0172	0.2382	58.1
2204.4	222523	2573.24	219489	2554.75	0.0167	0.2374	58.19
2206.05	222938	2622.03	219819	2640.7	0.0156	0.2365	57.23
2207.7	223386	2670.4	220229	2686.12	0.0157	0.2356	55.93
2209.35	223833	2718.25	220663	2748.8	0.015	0.2346	56.06
2211	224301	2764.39	221013	2751.52	0.0147	0.2336	56.57
2212.65	224782	2807.72	221359	2878.14	0.0148	0.2328	56.15
2214.3	225260	2848.37	221765	2933.15	0.0143	0.232	54.78
2215.95	225756	2883.53	222241	2974.86	0.0147	0.2309	54.44
2217.6	226241	2912.52	222682	3042.28	0.0154	0.2299	53.62
2219.25	226708	2934.79	223175	3036.19	0.0158	0.229	52.82
2220.9	227164	2948.43	223685	3004.73	0.0175	0.2281	51
2222.55	227578	2955.09	224278	3010.54	0.019	0.2272	52.09
2224.2	227961	2955.69	224698	3085	0.0178	0.2264	50.97
2225.85	228369	2949.7	225264	3124.82	0.0173	0.2255	50.46
2227.5	228792	2934.46	225806	3164.91	0.0155	0.2247	50.65
2229.15	229265	2911.21	226288	3198.9	0.0151	0.224	50.72
2230.8	229754	2880.34	226761	3187.22	0.0145	0.2232	51.69
2232.45	230265	2849.09	227167	3156.48	0.0152	0.2226	52.43
2234.1	230752	2823.1	227547	3077.03	0.0181	0.222	54.5
2235.75	231163	2788.63	227834	3097.81	0.0165	0.2214	56.56
2237.4	231614	2739.21	228129	3138.01	0.015	0.2209	54.94
2239.05	232112	2684.95	228642	3210.55	0.0154	0.2203	54.77
2240.7	232599	2635.31	229116	3123.47	0.0163	0.2197	52.3
2242.35	233061	2590.16	229772	3003.52	0.0174	0.2192	51.67
2244	233494	2543.36	230331	2895.78	0.017	0.2187	50.93
2245.65	233938	2497.45	230854	2893.25	0.0171	0.2182	52.02
2247.3	234380	2457.44	231218	2879.32	0.0179	0.2177	55.38
2248.95	234804	2423.43	231476	2821.57	0.0187	0.2173	53.69
2250.6	235210	2392.63	232077	2675.87	0.0186	0.2168	51.8
2252.25	235619	2366.03	232689	2602.99	0.0188	0.2164	52.29
2253.9	236024	2345.9	233122	2570.91	0.0208	0.216	53.5
2255.55	236392	2328.17	233493	2513.33	0.0211	0.2156	55.05
2257.2	236755	2311.28	233853	2453.16	0.0206	0.2152	54.68
2258.85	237127	2296.9	234321	2407.21	0.0223	0.2148	54.76
2260.5	237471	2283.14	234749	2370.84	0.0227	0.2145	55.37
2262.15	237810	2269.46	235129	2345.65	0.0225	0.2143	56.63
2263.8	238153	2256.09	235474	2321.03	0.0224	0.2139	56.81
2265.45	238497	2243.18	235876	2291.93	0.0226	0.2137	56.82
2267.1	238839	2230.87	236260	2277.09	0.0235	0.2135	58.23
2268.75	239168	2218.5	236561	2267.88	0.0229	0.2132	58.97
2270.4	239506	2206.98	236897	2246.64	0.0239	0.2129	58.58
2272.05	239830	2195.93	237279	2237.4	0.0243	0.2126	60
2273.7	240149	2185.19	237562	2229.38	0.0239	0.2123	59.83
2275.35	240475	2175.12	237914	2222.72	0.0238	0.2119	60.38
2277	240802	2166.93	238237	2212.4	0.0269	0.2115	59.62
2278.65	241092	2158.84	238619	2201.85	0.0262	0.211	60.24
2280.3	241390	2151.14	238936	2199.42	0.0267	0.2107	60.08
2281.95	241684	2144.1	239279	2189.15	0.0279	0.2102	60.3
2283.6	241965	2137.6	239609	2183.68	0.0292	0.2095	60.62
2285.25	242235	2131.66	239926	2183.43	0.0311	0.2089	61.03
2286.9	242489	2125.3	240238	2181.91	0.0317	0.2084	60.89
2288.55	242739	2118.54	240577	2162.86	0.0366	0.2077	60.79
2290.2	242956	2111.71	240902	2166.63	0.0372	0.2072	60.54
2291.85	243170	2105.77	241211	2178.42	0.0373	0.2067	62.72
2293.5	243384	2101.38	241432	2170.67	0.0374	0.2063	62.93
2295.15	243598	2098.38	241721	2155.92	0.0362	0.2057	63.04
2296.8	243819	2096.49	242003	2141.18	0.0356	0.205	64.12
2298.45	244045	2095.17	242244	2134.31	0.034	0.2043	64.99
2300.1	244283	2094.17	242477	2131.2	0.0328	0.2036	66.47
2301.75	244530	2093.19	242689	2111.03	0.0333	0.2028	66.6
2303.4	244775	2092.08	242916	2105.96	0.0305	0.2019	69.59
2305.05	245043	2091.26	243059	2100.09	0.0277	0.2009	70.16
2306.7	245339	2091.06	243268	2095.14	0.0252	0.2	70.36
2308.35	245667	2091.66	243485	2095.24	0.0241	0.1992	70.34
2310	246010	2092.78	243710	2094.93	0.0229	0.1986	69.58
2311.65	246374	2094.54	243961	2101.26	0.0213	0.198	69.83
2313.3	246765	2096.92	244193	2106.86	0.02	0.1975	68.17
2314.95	247182	2100.49	244491	2130.34	0.0181	0.1968	68.46
2316.6	247645	2107.3	244734	2182.96	0.016	0.1962	67.71
2318.25	248170	2119.28	245029	2274.28	0.0164	0.1956	65.1
2319.9	248686	2133.69	245431	2259.87	0.0171	0.1952	62.57
2321.55	249181	2148.58	245872	2266.4	0.0178	0.1947	61.45
2323.2	249658	2164.88	246282	2300.78	0.017	0.1943	60.4
2324.85	250157	2185.57	246720	2428.23	0.0163	0.1938	59.02
2326.5	250679	2214.76	247213	2557.69	0.0152	0.1934	57.78
2328.15	251241	2255.84	247764	2571.76	0.0144	0.1932	55.8
2329.8	251833	2304.81	248410	2539.7	0.0143	0.1929	54.18
2331.45	252433	2353.11	249016	2539.13	0.0147	0.1925	56.11
2333.1	253018	2401.44	249398	2629.91	0.0134	0.1922	57.03
2334.75	253660	2441.01	249837	2730.22	0.0133	0.1918	57.38
2336.4	254307	2463.44	250329	2786.39	0.0137	0.1914	55.83
2338.05	254938	2464.55	250972	2836.52	0.0134	0.1912	54.66
2339.7	255581	2447.9	251634	2824.67	0.0144	0.1909	52.85
2341.35	256181	2410.8	252365	2823.64	0.0135	0.1906	52.68
2343	256820	2360.15	252968	2963.88	0.0136	0.1905	52.87
2344.65	257456	2299.31	253594	2999.54	0.013	0.1901	52.05
2346.3	258121	2247.16	254309	2960.7	0.0137	0.1901	51.13
2347.95	258756	2206.77	255007	2867.5	0.0138	0.1899	51.96
2349.6	259386	2180.49	255592	2873.65	0.0134	0.1899	52.33
2351.25	260035	2174.01	256167	2911.89	0.014	0.1899	54.48
2352.9	260657	2180.6	256647	2824.13	0.0149	0.1899	54.51
2354.55	261239	2198.3	257283	2869.6	0.0139	0.19	55.31
2356.2	261866	2230.36	257875	2838.66	0.0138	0.1902	54.97
2357.85	262495	2274.13	258542	2853.93	0.0138	0.1904	56.29
2359.5	263124	2324.66	259074	2880.17	0.0148	0.1905	56.97
2361.15	263709	2379.87	259659	2726.34	0.0157	0.1901	54.3
2362.8	264260	2448.4	260498	2751.04	0.015	0.1895	52.15
2364.45	264840	2522.81	261246	2782.37	0.016	0.1891	51.18
2366.1	265384	2595.92	261951	2760.62	0.0166	0.189	49.68
2367.75	265910	2656.68	262690	2674.96	0.0184	0.1889	49.11
2369.4	266385	2716.2	263344	2685.61	0.0176	0.1888	48.99
2371.05	266882	2775.01	263925	2807.36	0.0173	0.1889	49.27
2372.7	267389	2830.99	264470	2867.67	0.0166	0.1888	51.11
2374.35	267915	2882.71	264922	2925.18	0.0164	0.1889	50.5
2376	268447	2934.33	265499	2970.37	0.015	0.1889	52.11
2377.65	269029	2979.5	265926	2976.47	0.0158	0.1889	52.97
2379.3	269581	3020.84	266355	3093.1	0.0148	0.1887	55.19
2380.95	270170	3055.03	266727	3152.55	0.0154	0.1886	54.23
2382.6	270738	3081.15	267288	3215.65	0.0151	0.1883	53.83
2384.25	271320	3098.73	267840	3276.43	0.0147	0.188	53.13
2385.9	271916	3107.03	268418	3385.59	0.0149	0.188	52.33
2387.55	272503	3104.84	269050	3440.95	0.0146	0.1879	50.86
2389.2	273103	3091.25	269704	3474.42	0.0143	0.1878	51.61
2390.85	273715	3067.08	270242	3501.61	0.0142	0.1876	50.89
2392.5	274335	3033.3	270863	3532.76	0.0143	0.1875	51.16
2394.15	274951	2990.13	271430	3512.67	0.0145	0.1875	50.7
2395.8	275560	2938.08	272056	3500.74	0.0146	0.1872	50.39
2397.45	276162	2876.17	272673	3503.71	0.0147	0.1873	50.77
2399.1	276761	2808.1	273248	3444.39	0.0153	0.1868	49.75
2400.75	277340	2730.43	273943	3384.8	0.0149	0.1869	49.62
2402.4	277932	2642.29	274570	3368.12	0.0144	0.1867	49.65
2404.05	278544	2570.5	275184	3282.07	0.0156	0.1866	49.77
2405.7	279109	2505.09	275783	3206.15	0.0144	0.1864	49.87
2407.35	279722	2461.61	276382	3154.13	0.0149	0.1863	50.53
2409	280316	2448.12	276932	3081.18	0.0152	0.1861	50.65
2410.65	280901	2454.53	277510	2957.56	0.0173	0.186	51.77
2412.3	281412	2469.21	278031	2806.35	0.0164	0.1858	50.89
2413.95	281954	2492.95	278697	2856.33	0.0154	0.1856	51.27
2415.6	282532	2519.23	279252	2811.95	0.0163	0.1854	52.57
2417.25	283079	2541.64	279778	2736.26	0.0167	0.1852	51.82
2418.9	283613	2558.02	280424	2649.11	0.0171	0.1848	51.99
2420.55	284135	2567.19	280992	2638.43	0.0174	0.1843	53.74
2422.2	284651	2569.77	281410	2679.54	0.0176	0.1838	55.05
2423.85	285161	2566.49	281883	2723.93	0.0176	0.1835	53.45
2425.5	285671	2558.13	282562	2722.29	0.0175	0.1827	52.98
2427.15	286186	2546.41	283150	2712.9	0.0182	0.182	53.88
2428.8	286685	2532.62	283643	2695.46	0.0189	0.1813	54.37
2430.45	287166	2516.43	284149	2684.72	0.0186	0.1809	55.01
2432.1	287656	2500.65	284635	2686.44	0.0189	0.1804	54.88
2433.75	288140	2488.12	285162	2654.6	0.0201	0.1801	55.29
2435.4	288597	2477.37	285652	2633.3	0.0196	0.1794	54.95
2437.05	289067	2469.95	286198	2637.87	0.0198	0.1789	55.79
2438.7	289533	2468.15	286661	2612.05	0.0199	0.178	56.15
2440.35	289999	2471.71	287139	2584.52	0.0217	0.1776	56.13
2442	290428	2479.46	287637	2561.83	0.0209	0.1767	56.09
2443.65	290874	2492.01	288138	2560.77	0.0209	0.176	56.73
2445.3	291323	2513.33	288573	2594.71	0.0187	0.1753	56.92
2446.95	291827	2544.01	289045	2632.66	0.0185	0.1744	56.44
2448.6	292338	2584.39	289550	2621.11	0.0174	0.1734	56.07
2450.25	292884	2631.67	290046	2668.42	0.0173	0.1724	56.95
2451.9	293437	2687.11	290450	2686.47	0.016	0.1715	58.14
2453.55	294037	2740.7	290854	2792.37	0.0165	0.1705	57.18
2455.2	294623	2793.73	291368	2827.05	0.0162	0.1694	55.68
2456.85	295225	2835.8	291972	2854.5	0.0173	0.1683	55.31
2458.5	295791	2863.43	292533	2832.55	0.0191	0.1675	54.32
2460.15	296306	2885.62	293152	2932.07	0.0171	0.1663	54.01
2461.8	296887	2902.4	293770	2994.26	0.017	0.1654	52.51
2463.45	297474	2912.6	294468	3050.02	0.016	0.164	53.02
2465.1	298103	2916.58	295062	3023.28	0.0172	0.1628	52.21
2466.75	298691	2913.38	295704	2999.22	0.0174	0.1616	53.91
2468.4	299277	2904.02	296162	3039.82	0.0186	0.1603	56.13
2470.05	299830	2886.73	296623	3013.74	0.0186	0.1591	53.77
2471.7	300389	2856.15	297366	3049.99	0.0169	0.1578	52.17
2473.35	301006	2817.48	298110	3056.75	0.0166	0.1564	52.5
2475	301641	2780.48	298705	3018.07	0.0179	0.1551	53.98
2476.65	302236	2742.64	299234	2961.15	0.0186	0.1537	54.25
2478.3	302812	2701.92	299800	2923.47	0.019	0.1524	55.76
2479.95	303381	2657.41	300304	2896.12	0.0197	0.1511	55.04
2481.6	303935	2606.33	300981	2801.39	0.0198	0.1497	52.78
2483.25	304492	2554.58	301766	2740.31	0.0211	0.1484	53.41
2484.9	305020	2485.67	302348	2707.48	0.019	0.147	54.57
2486.55	305611	2399.36	302890	2694.06	0.0183	0.1457	55.64
2488.2	306231	2292.04	303428	2689.98	0.0164	0.1445	56.11
2489.85	306929	2200.62	303984	2624.1	0.0168	0.143	56.45
2491.5	307615	2133.74	304549	2573.3	0.0172	0.1415	57.61
2493.15	308291	2086.08	305054	2509.15	0.0169	0.1401	57.96
2494.8	308986	2054.44	305659	2469.63	0.0161	0.1383	57.26
2496.45	309726	2038.19	306371	2343.04	0.0162	0.1368	54.87
2498.1	310471	2029.01	307239	2262.95	0.0167	0.1352	56.17
2499.75	311202	2020.98	307883	2227.56	0.0164	0.1337	57.3
2501.4	311955	2013.24	308539	2207.52	0.0167	0.1322	57.03
2503.05	312701	2004.95	309304	2162.34	0.0178	0.1308	56.82
2504.7	313409	1996.68	310096	2112.28	0.0195	0.1296	57.26
2506.35	314060	1988.52	310839	2111.08	0.0197	0.1287	58.82
2508	314712	1983.06	311511	2113.21	0.0204	0.1279	60.53
2509.65	315345	1982.22	312184	2095.53	0.0205	0.1272	60.52
2511.3	315978	1985.15	312938	2070.65	0.0228	0.1267	59.96
2512.95	316550	1989.31	313668	2072.29	0.0244	0.1262	59.42
2514.6	317086	1996.8	314356	2070.2	0.0217	0.1257	58.92
2516.25	317692	2009.31	315036	2078.63	0.0209	0.1254	58.7
2517.9	318322	2025.97	315687	2068.02	0.0207	0.1251	58.72
2519.55	318958	2048.55	316291	2085.25	0.0187	0.1247	58.66
2521.2	319666	2076.25	316853	2162.05	0.019	0.1246	59.32
2522.85	320365	2104.28	317402	2183.07	0.0192	0.1245	60.16
2524.5	321055	2130.12	317981	2197.44	0.02	0.1242	61.08
2526.15	321721	2151.19	318579	2230.65	0.0214	0.1241	61.86
2527.8	322343	2168.68	319205	2241.07	0.0225	0.1239	60.95
2529.45	322936	2184.9	319962	2252.96	0.023	0.1238	59.65
2531.1	323517	2200.01	320727	2263.32	0.0242	0.1237	59.17
2532.75	324067	2215.15	321430	2270.42	0.0246	0.1239	60.07
2534.4	324608	2231.19	322026	2285.42	0.0255	0.124	61.05
2536.05	325130	2248.09	322589	2307.09	0.0266	0.1243	62.05
2537.7	325628	2265.77	323125	2322.32	0.0279	0.1244	63.08
2539.35	326104	2284.77	323652	2341.7	0.0272	0.1249	63.87
2541	326590	2303.85	324158	2358.47	0.0282	0.1252	64.78
2542.65	327058	2322.15	324652	2343.56	0.0298	0.1255	65.92
2544.3	327500	2339.84	325122	2354.34	0.0302	0.126	66.48
2545.95	327933	2357.19	325590	2360.93	0.0298	0.1265	66.19
2547.6	328371	2373.9	326069	2384.81	0.0296	0.1269	65.97
2549.25	328810	2389.34	326554	2395.65	0.0305	0.1273	66.01
2550.9	329236	2403.42	327016	2402.74	0.0313	0.1277	66.35
2552.55	329649	2416.41	327439	2412.59	0.0302	0.1283	66.39
2554.2	330074	2428.1	327862	2431.24	0.0318	0.1284	65.81
2555.85	330478	2439.49	328319	2444.63	0.0298	0.1286	64.93
2557.5	330910	2449.92	328783	2474.96	0.0296	0.1289	64
2559.15	331342	2459.27	329236	2489.79	0.0303	0.1291	63.26
2560.8	331764	2467.55	329670	2490.28	0.0311	0.1294	62.54
2562.45	332174	2475.25	330114	2508.47	0.0296	0.1297	61.67
2564.1	332603	2482.57	330545	2517.01	0.0285	0.1299	60.73
2565.75	333048	2489.09	331004	2520.3	0.029	0.1303	60.22
2567.4	333485	2494.51	331445	2531.45	0.032	0.1305	62.5
2569.05	333881	2495.91	331787	2520.83	0.0347	0.1306	65.18
2570.7	334244	2494.92	332109	2542.07	0.0378	0.1308	66.75
2572.35	334578	2495.33	332479	2575.94	0.0379	0.1308	65.73
2574	334912	2499.78	332955	2590.49	0.0406	0.1307	64.69
2575.65	335223	2509.82	333431	2581.4	0.0393	0.1306	64.93
2577.3	335544	2525.29	333826	2569.79	0.0395	0.1304	65.77
2578.95	335864	2544.71	334172	2551.86	0.0405	0.1303	66.98
2580.6	336177	2566.68	334482	2541.34	0.0386	0.1301	67.74
2582.25	336506	2588.23	334798	2520.52	0.0354	0.1299	68.54
2583.9	336864	2604.02	335100	2522.74	0.0338	0.1297	69.28
2585.55	337240	2612.36	335401	2529.58	0.031	0.1295	69.72
2587.2	337651	2618.87	335713	2539.23	0.0284	0.1294	70.11
2588.85	338100	2624.71	336021	2556.97	0.0256	0.1293	70.04
2590.5	338598	2629.68	336345	2579.82	0.0241	0.1292	69.8
2592.15	339129	2632.87	336698	2596.29	0.023	0.129	69.47
2593.8	339684	2631.38	337078	2611.34	0.0209	0.1289	67.74
2595.45	340295	2619.91	337531	2646.39	0.0187	0.1288	65.69
2597.1	340980	2595.94	338043	2759.39	0.0173	0.1286	63.78
2598.75	341724	2551.24	338614	2810.82	0.0157	0.1283	61.84
2600.4	342540	2458.58	339234	2920	0.0134	0.1281	59.73
2602.05	343501	2346.53	339906	3029.6	0.013	0.1278	57.87
2603.7	344496	2269.06	340649	3060.35	0.0137	0.1276	56.2
2605.35	345439	2252.82	341467	3064.83	0.0138	0.1273	54.55
2607	346378	2318.54	342370	3149.71	0.0143	0.1271	52.79
2608.65	347288	2435.42	343438	2919.72	0.0146	0.1268	51.2
2610.3	348182	2580.89	344557	2873.65	0.0148	0.1265	49.93
2611.95	349061	2725.95	345600	2868.1	0.0151	0.1263	50.07
2613.6	349928	2861.41	346529	2978.51	0.0156	0.1262	50.45
2615.25	350764	2967.46	347414	3024.04	0.0159	0.126	51.4
2616.9	351585	3062.47	348247	3171.64	0.0155	0.1258	51.73
2618.55	352431	3145.89	349108	3284.03	0.0152	0.1257	52.03
2620.2	353292	3215.85	349959	3371.93	0.0154	0.1255	52.21
2621.85	354149	3271.71	350787	3474.37	0.0156	0.1252	52.32
2623.5	354995	3312.96	351610	3545.16	0.0155	0.125	52.31
2625.15	355847	3337.92	352463	3662.64	0.0139	0.1248	51.76
2626.8	356800	3353.35	353366	3712.51	0.0141	0.1246	51.34
2628.45	357742	3366.49	354254	3756.36	0.0141	0.1244	52.23
2630.1	358680	3382.48	355049	3774.63	0.0137	0.1241	53.61
2631.75	359648	3414.87	355819	3924.17	0.0141	0.1238	54.84
2633.4	360592	3464.86	356690	3875.56	0.0146	0.1234	53.93
2635.05	361506	3533.06	357712	3920.75	0.0146	0.1229	52.7
2636.7	362428	3616.13	358752	3878.38	0.0153	0.1225	51.47
2638.35	363309	3715.39	359818	3871	0.0156	0.122	50.28
2640	364176	3820.51	360850	3894.58	0.0158	0.1215	49.2
2641.65	365036	3942.9	361854	3952.04	0.0148	0.121	47.93
2643.3	365958	4061.69	362856	4017.22	0.0155	0.1206	46.85
2644.95	366839	4175.06	363809	4093.29	0.0152	0.1201	45.94
2646.6	367741	4276.93	364741	4247.6	0.0157	0.1196	46.89
2648.25	368620	4369.51	365590	4333.84	0.0151	0.119	48.19
2649.9	369535	4456.54	366419	4473.16	0.0153	0.1184	49.34
2651.55	370446	4528.74	367253	4531.44	0.0161	0.1178	50.84
2653.2	371314	4586.09	368066	4617.25	0.017	0.1172	52.27
2654.85	372141	4632.48	368884	4676.05	0.0171	0.1165	52.26
2656.5	372968	4662.65	369818	4678.53	0.0187	0.1159	51.66
2658.15	373727	4681.16	370768	4698.6	0.0173	0.1151	50.86
2659.8	374554	4690.05	371688	4761.99	0.0153	0.1142	50.3
2661.45	375499	4693.63	372570	4763.41	0.0153	0.1131	49.97
2663.1	376450	4692.41	373403	4772.64	0.0161	0.1121	49.91
2664.75	377362	4683.47	374231	4780.83	0.0167	0.1112	49.86
2666.4	378249	4665.64	375158	4760.11	0.0169	0.1103	49.68
2668.05	379137	4642.16	376146	4724.03	0.0178	0.1094	50.47
2669.7	379986	4614.05	377047	4674.87	0.019	0.1085	51.79
2671.35	380787	4577.67	377889	4637.85	0.0191	0.1077	53.01
2673	381592	4535.72	378729	4586.49	0.02	0.1069	54.23
2674.65	382364	4480.54	379549	4546.64	0.019	0.1063	55.36
2676.3	383182	4412.08	380334	4514.74	0.018	0.1056	55.96
2677.95	384048	4338.46	381125	4471.31	0.0179	0.105	56.16
2679.6	384928	4273.06	381922	4391.62	0.0193	0.1044	56.7
2681.25	385745	4205.78	382702	4312.62	0.02	0.1038	57.09
2682.9	386542	4140.74	383536	4212.97	0.0213	0.1032	57.74
2684.55	387292	4054.03	384389	4158.01	0.0191	0.1027	57.94
2686.2	388133	3939.4	385251	4127.57	0.0174	0.1021	59.11
2687.85	389061	3816.16	386017	4087.68	0.0163	0.1016	60.58
2689.5	390060	3728.78	386744	4011.29	0.0176	0.1011	61.34
2691.15	390987	3670.26	387494	3895.3	0.0182	0.1007	59.64
2692.8	391885	3632.48	388467	3796.68	0.0189	0.1003	57.71
2694.45	392756	3612.14	389552	3686.8	0.0204	0.0999	57.58
2696.1	393565	3601.46	390535	3637.88	0.0221	0.0996	58.31
2697.75	394316	3596.99	391420	3621.85	0.0228	0.0991	58.92
2699.4	395048	3596.73	392288	3615.25	0.0246	0.0986	59.43
2701.05	395727	3600.18	393118	3615.99	0.0246	0.0982	59.97
2702.7	396411	3607.56	393888	3629.06	0.026	0.0978	61.02
2704.35	397059	3617.97	394595	3638.87	0.0271	0.0974	63.42
2706	397684	3630.75	395221	3663.18	0.0277	0.0971	65.72
2707.65	398298	3646.29	395819	3672.85	0.0269	0.0967	66.34
2709.3	398932	3662.88	396483	3686.29	0.0285	0.0964	66.6
2710.95	399532	3680.59	397126	3701.86	0.0286	0.0962	66.47
2712.6	400131	3697.42	397762	3728.49	0.0308	0.0959	66.59
2714.25	400690	3713.93	398380	3736.33	0.0303	0.0956	66.64
2715.9	401259	3728.87	399016	3755.96	0.0322	0.0952	66.64
2717.55	401797	3742.3	399625	3759.55	0.0326	0.0947	66.54
2719.2	402331	3754.31	400231	3776.45	0.0328	0.0942	66.45
2720.85	402866	3764.02	400808	3779.72	0.0344	0.0936	67.26
2722.5	403378	3772.55	401359	3790.5	0.034	0.0928	68.29
2724.15	403901	3779.08	401881	3795.92	0.0336	0.0921	69.19
2725.8	404434	3783.49	402404	3795.24	0.0333	0.0912	69.26
2727.45	404977	3784.9	402953	3797.94	0.0342	0.0905	69
2729.1	405511	3783.23	403492	3798.55	0.0357	0.0897	69.03
2730.75	406026	3778.85	404034	3797.35	0.0343	0.0889	68.71
2732.4	406568	3772.18	404596	3790.43	0.036	0.088	68.61
2734.05	407088	3762.9	405158	3778.61	0.0353	0.0873	68.42
2735.7	407623	3752.4	405706	3769.46	0.0354	0.0863	68.1
2737.35	408163	3740.45	406264	3753.55	0.034	0.0854	67.76
2739	408732	3727.93	406825	3737.82	0.0353	0.0844	67.66
2740.65	409286	3715.23	407376	3721.74	0.0346	0.0836	67.42
2742.3	409856	3702.32	407938	3706.66	0.0332	0.0826	67.12
2743.95	410457	3689.39	408526	3689.42	0.0326	0.0816	66.89
2745.6	411077	3677.83	409115	3675.1	0.0326	0.0811	66.67
2747.25	411700	3665.41	409697	3661.41	0.0305	0.0802	65.6
2748.9	412374	3653.43	410344	3648.54	0.0297	0.0795	64.32
2750.55	413072	3642.41	411015	3636.18	0.0305	0.079	63.15
2752.2	413756	3630.74	411685	3639.75	0.0296	0.0778	62.47
2753.85	414472	3619.44	412412	3626.51	0.0293	0.0773	61.88
2755.5	415200	3607.9	413141	3617.14	0.0296	0.0762	61.78
2757.15	415931	3596.19	413860	3606.88	0.0297	0.0757	62.53
2758.8	416665	3583.6	414566	3595.58	0.0306	0.0743	63.38
2760.45	417392	3570.08	415305	3582.44	0.0302	0.0733	63.55
2762.1	418136	3555.62	416060	3567.99	0.029	0.0725	63.34
2763.75	418920	3541.2	416823	3555.06	0.0294	0.0714	63.2
2765.4	419706	3526.87	417589	3544.51	0.0283	0.0707	63.12
2767.05	420530	3513.72	418367	3531.86	0.0281	0.0699	62.98
2768.7	421371	3502.23	419182	3523.56	0.026	0.0691	62.65
2770.35	422290	3495.1	420015	3516.91	0.0258	0.0684	62.73
2772	423224	3493.65	420867	3522.44	0.0251	0.0673	62.65
2773.65	424199	3498.45	421780	3528.67	0.0279	0.0664	62.89
2775.3	425090	3505.76	422728	3545.3	0.0303	0.0653	63.02
2776.95	425924	3516.78	423717	3543.94	0.0268	0.0644	62.49
2778.6	426881	3532.62	424698	3546.52	0.024	0.0635	61.92
2780.25	427965	3552.49	425605	3579.22	0.0207	0.0626	60.99
2781.9	429236	3588.24	426580	3642.47	0.0176	0.0616	59.51
2783.55	430760	3688.66	427723	3743.8	0.0139	0.0612	56.63
2785.2	432701	3846.38	429109	3897.43	0.0118	0.0617	53.74
2786.85	434965	3961.8	430744	4456.14	0.0118	0.0624	52.34
2788.5	437204	3932.39	432751	4474.8	0.0114	0.0625	51.79
2790.15	439508	3728.71	435047	4442.34	0.0114	0.0623	50.93
2791.8	441836	3380.49	437385	4255.38	0.0109	0.0621	50.4
2793.45	444272	3121.95	439752	3944.31	0.012	0.0621	49.95
2795.1	446488	3065.85	442129	3597	0.0135	0.0624	49.81
2796.75	448450	3116.54	444528	3428.53	0.0152	0.0625	50.85
2798.4	450182	3168.37	446633	3392.92	0.0158	0.0629	51.83
2800.05	451845	3175.59	448493	3351.79	0.0173	0.0633	52.75
2801.7	453354	3115.57	450140	3353.94	0.0165	0.0635	53.2
2803.35	454929	2982.15	451767	3348.96	0.0158	0.0636	53.45
2805	456566	2851.55	453261	3293.02	0.0165	0.0636	52.42
2806.65	458142	2757.6	454894	3099.94	0.0168	0.0639	51.09
2808.3	459680	2739.45	456602	2983.26	0.0162	0.0642	49.97
2809.95	461265	2736.88	458228	3080.19	0.0145	0.0646	49.84
2811.6	463021	2704.7	459759	3165.98	0.015	0.0647	50.11
2813.25	464724	2622.02	461324	3115.07	0.0159	0.0651	50.89
2814.9	466320	2510.53	463005	3027.73	0.015	0.0654	51.88
2816.55	467998	2416.39	464629	2994.27	0.0137	0.0656	53.34
2818.2	469841	2449.08	466129	2942.1	0.0138	0.0653	54.59
2819.85	471668	2489.4	467726	2838.84	0.0157	0.0655	55.05
2821.5	473269	2487.32	469502	2713.91	0.0191	0.0656	56.16
2823.15	474583	2431.91	471243	2616.82	0.0177	0.0658	57.24
2824.8	475999	2338.51	472816	2668.48	0.0156	0.0662	58.72
2826.45	477602	2306.9	474116	2577.6	0.0185	0.0666	59.59
2828.1	478941	2283.87	475427	2475.72	0.0187	0.0668	58.99
2829.75	480262	2273.2	476978	2467.84	0.0167	0.067	58.07
2831.4	481741	2271.28	478463	2400.73	0.0179	0.0672	57.66
2833.05	483113	2262.75	479800	2407.77	0.0191	0.0675	57.39
2834.7	484397	2244.23	481229	2345.23	0.0199	0.0677	57.76
2836.35	485621	2223.89	482606	2313.68	0.0208	0.068	59.56
2838	486784	2212.1	483812	2300.04	0.0211	0.0684	61.34
2839.65	487926	2211.44	484957	2287.51	0.0227	0.0688	62.82
2841.3	488984	2216.2	486063	2291.56	0.0241	0.0692	63.97
2842.95	489972	2221.79	487149	2286.49	0.0237	0.0694	64.56
2844.6	490975	2227.09	488227	2280.17	0.0235	0.0695	63.12
2846.25	491987	2231.2	489322	2288.48	0.0221	0.0695	61.12
2847.9	493059	2235.33	490398	2295.94	0.0215	0.0695	59.74
2849.55	494161	2239.98	491464	2314.69	0.0214	0.0695	59.43
2851.2	495272	2244.42	492519	2325.5	0.0209	0.0697	59.13
2852.85	496406	2248.96	493613	2337.22	0.0211	0.0699	59.73
2854.5	497526	2252.84	494683	2352.07	0.0208	0.0701	60.77
2856.15	498658	2259.85	495745	2361.1	0.0209	0.0703	61.67
2857.8	499780	2273.22	496823	2367.44	0.0205	0.0705	60.81
2859.45	500919	2296.61	497980	2386.43	0.02	0.0707	59.61
2861.1	502084	2324.67	499159	2409.14	0.02	0.0708	58.74
2862.75	503249	2345.94	500326	2429.97	0.0203	0.0709	58.55
2864.4	504397	2353.52	501484	2445.94	0.0204	0.0709	58.36
2866.05	505539	2346.6	502659	2487.22	0.0187	0.0708	58.34
2867.7	506785	2341.85	503820	2498.94	0.0195	0.0707	59.05
2869.35	507984	2339.67	504932	2507.86	0.0196	0.0708	59.59
2871	509170	2341.5	506092	2544.94	0.0177	0.0709	59.14
2872.65	510488	2377.1	507335	2542.88	0.0183	0.0711	58.75
2874.3	511757	2427.07	508542	2597.8	0.0183	0.0712	58.33
2875.95	513025	2467.73	509808	2600.98	0.0188	0.0712	58.18
2877.6	514257	2487.65	511110	2629.44	0.0193	0.0711	58.11
2879.25	515459	2485.27	512387	2608.84	0.0197	0.0709	58.04
2880.9	516641	2469.95	513648	2592.15	0.021	0.0708	58.05
2882.55	517754	2446.9	514870	2573.96	0.0205	0.0706	57.95
2884.2	518895	2432.76	516074	2532.42	0.0216	0.0704	59.09
2885.85	519979	2432	517175	2526.85	0.0218	0.0701	60.3
2887.5	521059	2447.32	518256	2515.62	0.022	0.0698	61.05
2889.15	522137	2478.88	519349	2527.18	0.0221	0.0695	60.56
2890.8	523211	2522.52	520466	2549.13	0.0215	0.069	59.82
2892.45	524324	2567.45	521595	2583.52	0.0209	0.0686	59.35
2894.1	525473	2618.62	522708	2659.49	0.0198	0.0683	59.05
2895.75	526691	2662.68	523829	2703.03	0.0196	0.0681	59.02
2897.4	527925	2693.42	524973	2769.21	0.0198	0.0678	59.88
2899.05	529151	2710.57	526128	2827.21	0.0196	0.0677	60.85
2900.7	530393	2717.98	527312	2844.99	0.0199	0.0677	60.95
2902.35	531622	2719.78	528539	2833.55	0.0203	0.0677	58.93
2904	532821	2717.87	529872	2854.9	0.0179	0.0679	56.46
2905.65	534180	2769.35	531226	2901.33	0.0148	0.068	54.21
2907.3	535823	2889.35	532541	2976.51	0.0134	0.0681	52.38
2908.95	537631	2987.41	533958	3109.3	0.014	0.0684	51.06
2910.6	539349	3013.24	535632	3237.96	0.0144	0.0688	51.5
2912.25	541010	2957.25	537366	3272.14	0.0143	0.0695	52.23
2913.9	542668	2806.34	539008	3327.9	0.0132	0.0703	52.53
2915.55	544440	2646.1	540613	3259.99	0.0135	0.0715	52.4
2917.2	546144	2539.47	542218	3165.06	0.014	0.073	52.39
2918.85	547756	2521.26	543875	3067.33	0.014	0.0749	53.26
2920.5	549331	2571.68	545434	3024.45	0.0151	0.077	54.79
2922.15	550750	2601.69	546856	2910.54	0.0163	0.0793	54.97
2923.8	552026	2602.83	548322	2861.16	0.0179	0.0813	54.92
2925.45	553161	2572.1	549746	2775.43	0.0175	0.0836	54.77
2927.1	554287	2522.55	551036	2784.33	0.0169	0.0866	55.39
2928.75	555412	2493.47	552131	2717.55	0.0193	0.0897	58.14
2930.4	556367	2475.41	552980	2661.77	0.0214	0.0924	60.9
2932.05	557202	2461.33	553824	2609.18	0.0228	0.0948	61.14
2933.7	557965	2447.13	554835	2548.73	0.0205	0.0977	59.62
2935.35	558787	2445.67	555861	2545.49	0.0196	0.1015	58.46
2937	559618	2464.26	556703	2559.18	0.0188	0.1045	59.03
2938.65	560457	2501.55	557402	2663.32	0.0179	0.1061	60.02
2940.3	561324	2534.07	558081	2643.54	0.0197	0.1089	60.47
2941.95	562094	2557.47	558795	2591.46	0.0201	0.1121	59.09
2943.6	562827	2572.17	559606	2588.4	0.0207	0.1147	57.62
2945.25	563523	2580.62	560452	2607.01	0.0215	0.1169	57.76
2946.9	564178	2584.23	561244	2594.14	0.0223	0.1193	58.78
2948.55	564797	2584.77	561900	2605.85	0.0228	0.1213	59.86
2950.2	565395	2583.03	562533	2608.61	0.0236	0.1229	60.99
2951.85	565964	2578.8	563146	2602.67	0.0246	0.124	61.99
2953.5	566504	2572.25	563747	2594.71	0.0241	0.1258	62.55
2955.15	567049	2564.84	564321	2584	0.0249	0.1264	62.08
2956.8	567574	2556.33	564943	2570.04	0.0246	0.1268	61.56
2958.45	568103	2547.71	565550	2558.45	0.0251	0.1282	61.55
2960.1	568615	2538.89	566083	2553.85	0.0252	0.1291	61.7
2961.75	569123	2529.7	566598	2542.77	0.0255	0.1308	62.07
2963.4	569617	2519.78	567092	2514.62	0.0251	0.1314	63.08
2965.05	570116	2509.51	567560	2507.32	0.0258	0.1303	64.31
2966.7	570608	2498.39	568061	2494.89	0.0254	0.1311	64.7
2968.35	571104	2486.8	568543	2496.44	0.0253	0.129	63.5
2970	571609	2475.09	569140	2485.04	0.0255	0.1284	62.26
2971.65	572113	2463.64	569694	2470.02	0.0254	0.1267	60.92
2973.3	572626	2453.04	570275	2457.51	0.0249	0.1237	59.56
2974.95	573161	2444.56	570873	2447.04	0.0256	0.1205	58.5
2976.6	573696	2437.69	571472	2437.55	0.025	0.1177	59.69
2978.25	574257	2432.06	571984	2428.72	0.0256	0.1147	61.21
2979.9	574819	2426.68	572494	2420.66	0.0261	0.111	62.19
2981.55	575388	2420.81	573063	2433.5	0.0264	0.1068	61.75
2983.2	575974	2413.79	573698	2419.72	0.0252	0.1023	61.1
2984.85	576615	2406.1	574377	2408.11	0.0248	0.0974	61.27
2986.5	577298	2397.87	575037	2398.69	0.0246	0.0939	61.97
2988.15	578011	2389.43	575665	2393.38	0.0257	0.0896	62.72
2989.8	578726	2380.33	576354	2385.39	0.027	0.0854	62.74
2991.45	579441	2370.24	577128	2376.31	0.0273	0.082	62.44
2993.1	580179	2358.22	577937	2389.43	0.0265	0.0787	62.05
2994.75	580970	2342.22	578756	2379.38	0.023	0.0753	62.15
2996.4	581925	2320.93	579563	2373.29	0.0205	0.0716	62.25
2998.05	583048	2308.55	580416	2416.9	0.0174	0.0675	59.82
2999.7	584453	2348.18	581497	2459.14	0.017	0.0636	56.23
3001.35	585975	2372.35	582859	2570.28	0.017	0.0604	52.9
3003	587586	2366.13	584551	2633.16	0.0171	0.0576	54.59
3004.65	589261	2364.62	586126	2544.47	0.0202	0.055	57.36
3006.3	590744	2346.95	587735	2463.71	0.0193	0.0525	58.76
3007.95	592373	2337.97	589454	2532.83	0.0184	0.0502	59.69
3009.6	594165	2381.17	591046	2514.24	0.0201	0.0479	60.43
3011.25	595879	2393.63	592815	2511.03	0.0184	0.0459	58.74
3012.9	597829	2334.41	594793	2624.75	0.0163	0.0441	56.74
3014.55	600125	2316.06	596825	2527.34	0.0184	0.0426	55.36
3016.2	602232	2302.69	599140	2424.34	0.0192	0.0412	57.9
3017.85	604319	2324.4	601291	2417.69	0.0201	0.04	61.21
3019.5	606369	2352.7	603306	2410.43	0.0218	0.0389	63.82
3021.15	608312	2357.57	605337	2423.75	0.0242	0.0379	64.47
3022.8	610111	2355.2	607377	2426.04	0.0262	0.0371	65.05
3024.45	611811	2364.15	609279	2431.97	0.0257	0.0365	65.54
3026.1	613575	2396.14	611049	2475.66	0.0267	0.036	66.3
3027.75	615292	2460.3	612791	2527.36	0.0263	0.0352	66.68
3029.4	617071	2565.81	614563	2622.17	0.0248	0.0347	65.92
3031.05	618994	2702.77	616387	2768.88	0.0249	0.0341	65.23
3032.7	620931	2862.02	618322	2919.08	0.0249	0.0338	64.36
3034.35	622896	3052.66	620317	3084.74	0.0236	0.0331	63.12
3036	625009	3249.25	622370	3295.15	0.0237	0.0326	61.93
3037.65	627138	3455.86	624533	3466.47	0.0177	0.0326	57.18
3039.3	630002	3614.05	626863	3840.45	0.0122	0.033	51.5
3040.95	634092	3966.37	629917	4258.77	0.012	0.0342	52.54
3042.6	638123	4072.58	633724	4471.02	0.0119	0.035	51.13
3044.25	642084	3953.62	637782	4494.91	0.0129	0.0356	50.01
3045.9	645683	3959.54	641767	4224.93	0.0147	0.0365	51.12
3047.55	648758	4016.7	645208	4130.46	0.0158	0.0377	49.42
3049.2	651528	3992.48	648357	4166.27	0.0153	0.0389	50.62
3050.85	654297	3897.58	650991	4140.16	0.0165	0.0401	50.97
3052.5	656793	3756.45	653634	3991.98	0.0157	0.0413	49.82
3054.15	659342	3696.17	656175	3934.78	0.0146	0.0426	50.67
3055.8	661987	3682.53	658555	3860.62	0.0153	0.044	47.81
3057.45	664434	3516.39	661261	3854.87	0.0139	0.0454	46.53
3059.1	667045	3275.93	663748	3784.86	0.0149	0.0469	51.1
3060.75	669409	3058.6	665868	3393.24	0.0167	0.0484	50.77
3062.4	671452	2788.78	668255	3187.27	0.0152	0.0499	51.25
3064.05	673632	2634.85	670329	3063.45	0.0157	0.0515	55.04
3065.7	675674	2645.5	672065	2845.08	0.0179	0.0532	52.48
3067.35	677403	2657.09	674262	2771.78	0.0178	0.0547	54.23
3069	679092	2649.89	676022	2840.1	0.019	0.0562	54.86
3070.65	680639	2601.64	677627	2733.6	0.0185	0.0575	52.74
3072.3	682192	2494.18	679341	2793.92	0.0166	0.0588	55.94
3073.95	683877	2430.35	680647	2708.91	0.0183	0.0599	54.6
3075.6	685378	2385.59	682220	2599.77	0.0186	0.0611	54.37
3077.25	686827	2373.61	683853	2494.19	0.0197	0.0619	55.61
3078.9	688178	2380.82	685248	2443.65	0.0204	0.0628	56.65
3080.55	689466	2384.58	686604	2410.52	0.0211	0.0634	57.51
3082.2	690698	2375.99	687895	2400.78	0.0217	0.0641	57.16
3083.85	691888	2358.93	689183	2398.06	0.0218	0.0646	57.82
3085.5	693058	2340.72	690373	2387.53	0.0226	0.065	58.71
3087.15	694180	2324.05	691514	2367.06	0.0232	0.0654	57.17
3088.8	695267	2313.42	692748	2352.99	0.0239	0.0651	58.32
3090.45	696325	2311.1	693841	2346.09	0.0249	0.0648	59.3
3092.1	697348	2317.38	694911	2342.62	0.0246	0.0645	58.63
3093.75	698387	2329.82	696015	2347.03	0.0248	0.064	60.1
3095.4	699427	2343.57	697009	2358.39	0.0251	0.0635	60.1
3097.05	700461	2355.35	698061	2368.73	0.0249	0.0631	59.91
3098.7	701512	2362.72	699123	2379.63	0.0247	0.0628	61.17
3100.35	702577	2364.94	700120	2386.25	0.0235	0.0624	61.05
3102	703703	2364.19	701186	2389.67	0.0233	0.0621	61.22
3103.65	704842	2361.63	702254	2394.07	0.0245	0.0616	60.1
3105.3	705933	2354.57	703428	2393.52	0.0236	0.061	59.78
3106.95	707078	2351.65	704601	2392.28	0.0229	0.0603	60.83
3108.6	708273	2367.42	705689	2409.38	0.0216	0.0593	61.51
3110.25	709560	2423.39	706838	2435.17	0.0207	0.0582	61.31
3111.9	710929	2498.12	708077	2481.18	0.0207	0.0569	60.91
3113.55	712328	2581.84	709431	2703.14	0.02	0.0555	59.35
3115.2	713811	2679.81	710935	2808.46	0.0195	0.0544	59.24
3116.85	715370	2786.82	712399	2921.2	0.02	0.0533	58.81
3118.5	716918	2902.96	713965	3040.23	0.0178	0.0525	58.31
3120.15	718683	3041.97	715592	3231.12	0.0163	0.052	57.08
3121.8	720628	3241.89	717274	3389.4	0.016	0.0517	51.65
3123.45	722616	3385.9	719424	3532.07	0.0175	0.0516	54.26
3125.1	724442	3457.55	721227	3609.29	0.018	0.0517	56.67
3126.75	726214	3489.79	723024	3654.19	0.0177	0.0518	55.23
3128.4	728013	3487.27	724916	3646.18	0.0181	0.052	54.7
3130.05	729765	3462.46	726713	3636.07	0.0191	0.052	54
3131.7	731430	3457.65	728536	3543.99	0.0205	0.052	53.48
3133.35	732981	3472.48	730289	3542.89	0.0202	0.052	55.8
3135	734553	3493.26	731804	3552.91	0.0203	0.0521	53.75
3136.65	736111	3499.82	733454	3594.11	0.0191	0.0526	53.64
3138.3	737754	3493.64	735005	3675.26	0.0157	0.053	53.47
3139.95	739733	3561.77	736577	3786.59	0.0152	0.053	50.38
3141.6	741774	3668.01	738508	3859.88	0.0151	0.053	48.74
3143.25	743842	3725.26	740621	3979.84	0.0155	0.0532	50.4
3144.9	745837	3712.7	742548	3993.2	0.0156	0.0534	50.79
3146.55	747816	3639.81	744556	3959.36	0.0155	0.0532	50.91
3148.2	749810	3574.33	746545	3873.36	0.0153	0.0528	51.13
3149.85	751856	3590.29	748539	3837.23	0.0146	0.0522	52.36
3151.5	754016	3573.72	750515	3858.61	0.0149	0.0512	53.33
3153.15	756172	3514.02	752600	3762.69	0.0164	0.0501	52.23
3154.8	758186	3470.52	754912	3587.3	0.019	0.0486	53.24
3156.45	759971	3442.27	757041	3517.8	0.0173	0.0472	52.56
3158.1	761996	3397.33	759073	3554.51	0.0151	0.0459	54.13
3159.75	764379	3329.54	760971	3558.06	0.017	0.0448	57.87
3161.4	766541	3215.25	763020	3357.72	0.0188	0.0437	57.83
3163.05	768551	3031.68	765388	3236.81	0.0165	0.0429	57.19
3164.7	770884	2930.8	767573	3140.75	0.0172	0.0422	59.15
3166.35	773156	2858.45	769686	2943.79	0.0202	0.0415	58.06
3168	775119	2756.71	772106	2868.13	0.0192	0.0408	59.26
3169.65	777219	2706.71	774203	2782.89	0.0211	0.0402	59.69
3171.3	779166	2678.77	776266	2733.5	0.0226	0.0396	60.86
3172.95	781013	2666.48	778272	2728.1	0.0235	0.0391	62.5
3174.6	782809	2674.44	780126	2735.59	0.0234	0.0386	61.32
3176.25	784634	2718.32	782031	2797.15	0.0245	0.0382	62.02
3177.9	786398	2808.57	783839	2908.16	0.0261	0.038	64.37
3179.55	788060	2945.19	785547	3040.91	0.0276	0.0379	63.47
3181.2	789639	3161.72	787301	3231.29	0.0245	0.0378	64.6
3182.85	791416	3491.31	788879	3598.07	0.0218	0.0379	64.89
3184.5	793417	3979.79	790544	4066.97	0.0187	0.0381	59.83
3186.15	795738	4734.79	792657	4764.92	0.0159	0.0381	56.61
3187.8	798457	6094.98	795022	5880.79	0.0138	0.0381	57.37
3189.45	801588	7600.8	797572	7567.96	0.0138	0.038	58.84
3191.1	804734	9149.39	800475	9079.09	0.0136	0.0378	57.26
3192.75	807941	10588.9	803758	10656.9	0.0148	0.0375	56.08
